!OUTPUT FROM IECWIND v4.12 (19-Jun-2001) - IEC 61400-1 2nd EDITION.
 ! 1-YEAR EXTREME DIRECTION CHANGE IEC CONDITION
! for IEC Turbine Class 2 and IEC Turbulence Category B
! Rotor diameter = 108.0 m. 
! 100.0 m hub-height yields   21.0 m turbulence scale. 
!---------------------------------------------------------------
!Stats for this wind file:
!     The transient occurs over  6.0 seconds.
!     The maximum direction change is   31.56  degrees.
!     This maximum occurs at  206.00 seconds.
!     The wind inflow inclination angle is  0.0  degrees to the horizontal.
!---------------------------------------------------------------
 ! Time	Wind	Wind	Vertical	Horiz.	Pwr.Law	Lin.Vert.	Gust
 !	Speed	Dir	Speed	Shear	Vert.Shr	Shear	Speed
 ! (sec)	(m/s)	(Deg)	(m/s)				(m/s)
    0.000	   11.000	    0.000	    0.000	    0.000	    0.200	    0.000	    0.000
  200.000	   11.000	    0.000	    0.000	    0.000	    0.200	    0.000	    0.000
  200.010	   11.000	    0.000	    0.000	    0.000	    0.200	    0.000	    0.000
  200.020	   11.000	    0.001	    0.000	    0.000	    0.200	    0.000	    0.000
  200.030	   11.000	    0.002	    0.000	    0.000	    0.200	    0.000	    0.000
  200.040	   11.000	    0.003	    0.000	    0.000	    0.200	    0.000	    0.000
  200.050	   11.000	    0.005	    0.000	    0.000	    0.200	    0.000	    0.000
  200.060	   11.000	    0.008	    0.000	    0.000	    0.200	    0.000	    0.000
  200.070	   11.000	    0.011	    0.000	    0.000	    0.200	    0.000	    0.000
  200.080	   11.000	    0.014	    0.000	    0.000	    0.200	    0.000	    0.000
  200.090	   11.000	    0.018	    0.000	    0.000	    0.200	    0.000	    0.000
  200.100	   11.000	    0.022	    0.000	    0.000	    0.200	    0.000	    0.000
  200.110	   11.000	    0.026	    0.000	    0.000	    0.200	    0.000	    0.000
  200.120	   11.000	    0.031	    0.000	    0.000	    0.200	    0.000	    0.000
  200.130	   11.000	    0.037	    0.000	    0.000	    0.200	    0.000	    0.000
  200.140	   11.000	    0.042	    0.000	    0.000	    0.200	    0.000	    0.000
  200.150	   11.000	    0.049	    0.000	    0.000	    0.200	    0.000	    0.000
  200.160	   11.000	    0.055	    0.000	    0.000	    0.200	    0.000	    0.000
  200.170	   11.000	    0.062	    0.000	    0.000	    0.200	    0.000	    0.000
  200.180	   11.000	    0.070	    0.000	    0.000	    0.200	    0.000	    0.000
  200.190	   11.000	    0.078	    0.000	    0.000	    0.200	    0.000	    0.000
  200.200	   11.000	    0.086	    0.000	    0.000	    0.200	    0.000	    0.000
  200.210	   11.000	    0.095	    0.000	    0.000	    0.200	    0.000	    0.000
  200.220	   11.000	    0.105	    0.000	    0.000	    0.200	    0.000	    0.000
  200.230	   11.000	    0.114	    0.000	    0.000	    0.200	    0.000	    0.000
  200.240	   11.000	    0.124	    0.000	    0.000	    0.200	    0.000	    0.000
  200.250	   11.000	    0.135	    0.000	    0.000	    0.200	    0.000	    0.000
  200.260	   11.000	    0.146	    0.000	    0.000	    0.200	    0.000	    0.000
  200.270	   11.000	    0.157	    0.000	    0.000	    0.200	    0.000	    0.000
  200.280	   11.000	    0.169	    0.000	    0.000	    0.200	    0.000	    0.000
  200.290	   11.000	    0.182	    0.000	    0.000	    0.200	    0.000	    0.000
  200.300	   11.000	    0.194	    0.000	    0.000	    0.200	    0.000	    0.000
  200.310	   11.000	    0.207	    0.000	    0.000	    0.200	    0.000	    0.000
  200.320	   11.000	    0.221	    0.000	    0.000	    0.200	    0.000	    0.000
  200.330	   11.000	    0.235	    0.000	    0.000	    0.200	    0.000	    0.000
  200.340	   11.000	    0.249	    0.000	    0.000	    0.200	    0.000	    0.000
  200.350	   11.000	    0.264	    0.000	    0.000	    0.200	    0.000	    0.000
  200.360	   11.000	    0.280	    0.000	    0.000	    0.200	    0.000	    0.000
  200.370	   11.000	    0.295	    0.000	    0.000	    0.200	    0.000	    0.000
  200.380	   11.000	    0.311	    0.000	    0.000	    0.200	    0.000	    0.000
  200.390	   11.000	    0.328	    0.000	    0.000	    0.200	    0.000	    0.000
  200.400	   11.000	    0.345	    0.000	    0.000	    0.200	    0.000	    0.000
  200.410	   11.000	    0.362	    0.000	    0.000	    0.200	    0.000	    0.000
  200.420	   11.000	    0.380	    0.000	    0.000	    0.200	    0.000	    0.000
  200.430	   11.000	    0.398	    0.000	    0.000	    0.200	    0.000	    0.000
  200.440	   11.000	    0.417	    0.000	    0.000	    0.200	    0.000	    0.000
  200.450	   11.000	    0.436	    0.000	    0.000	    0.200	    0.000	    0.000
  200.460	   11.000	    0.456	    0.000	    0.000	    0.200	    0.000	    0.000
  200.470	   11.000	    0.475	    0.000	    0.000	    0.200	    0.000	    0.000
  200.480	   11.000	    0.496	    0.000	    0.000	    0.200	    0.000	    0.000
  200.490	   11.000	    0.517	    0.000	    0.000	    0.200	    0.000	    0.000
  200.500	   11.000	    0.538	    0.000	    0.000	    0.200	    0.000	    0.000
  200.510	   11.000	    0.559	    0.000	    0.000	    0.200	    0.000	    0.000
  200.520	   11.000	    0.581	    0.000	    0.000	    0.200	    0.000	    0.000
  200.530	   11.000	    0.604	    0.000	    0.000	    0.200	    0.000	    0.000
  200.540	   11.000	    0.627	    0.000	    0.000	    0.200	    0.000	    0.000
  200.550	   11.000	    0.650	    0.000	    0.000	    0.200	    0.000	    0.000
  200.560	   11.000	    0.674	    0.000	    0.000	    0.200	    0.000	    0.000
  200.570	   11.000	    0.698	    0.000	    0.000	    0.200	    0.000	    0.000
  200.580	   11.000	    0.722	    0.000	    0.000	    0.200	    0.000	    0.000
  200.590	   11.000	    0.747	    0.000	    0.000	    0.200	    0.000	    0.000
  200.600	   11.000	    0.772	    0.000	    0.000	    0.200	    0.000	    0.000
  200.610	   11.000	    0.798	    0.000	    0.000	    0.200	    0.000	    0.000
  200.620	   11.000	    0.824	    0.000	    0.000	    0.200	    0.000	    0.000
  200.630	   11.000	    0.851	    0.000	    0.000	    0.200	    0.000	    0.000
  200.640	   11.000	    0.878	    0.000	    0.000	    0.200	    0.000	    0.000
  200.650	   11.000	    0.905	    0.000	    0.000	    0.200	    0.000	    0.000
  200.660	   11.000	    0.933	    0.000	    0.000	    0.200	    0.000	    0.000
  200.670	   11.000	    0.961	    0.000	    0.000	    0.200	    0.000	    0.000
  200.680	   11.000	    0.990	    0.000	    0.000	    0.200	    0.000	    0.000
  200.690	   11.000	    1.019	    0.000	    0.000	    0.200	    0.000	    0.000
  200.700	   11.000	    1.048	    0.000	    0.000	    0.200	    0.000	    0.000
  200.710	   11.000	    1.078	    0.000	    0.000	    0.200	    0.000	    0.000
  200.720	   11.000	    1.108	    0.000	    0.000	    0.200	    0.000	    0.000
  200.730	   11.000	    1.139	    0.000	    0.000	    0.200	    0.000	    0.000
  200.740	   11.000	    1.170	    0.000	    0.000	    0.200	    0.000	    0.000
  200.750	   11.000	    1.201	    0.000	    0.000	    0.200	    0.000	    0.000
  200.760	   11.000	    1.233	    0.000	    0.000	    0.200	    0.000	    0.000
  200.770	   11.000	    1.265	    0.000	    0.000	    0.200	    0.000	    0.000
  200.780	   11.000	    1.298	    0.000	    0.000	    0.200	    0.000	    0.000
  200.790	   11.000	    1.331	    0.000	    0.000	    0.200	    0.000	    0.000
  200.800	   11.000	    1.364	    0.000	    0.000	    0.200	    0.000	    0.000
  200.810	   11.000	    1.398	    0.000	    0.000	    0.200	    0.000	    0.000
  200.820	   11.000	    1.432	    0.000	    0.000	    0.200	    0.000	    0.000
  200.830	   11.000	    1.467	    0.000	    0.000	    0.200	    0.000	    0.000
  200.840	   11.000	    1.502	    0.000	    0.000	    0.200	    0.000	    0.000
  200.850	   11.000	    1.537	    0.000	    0.000	    0.200	    0.000	    0.000
  200.860	   11.000	    1.573	    0.000	    0.000	    0.200	    0.000	    0.000
  200.870	   11.000	    1.609	    0.000	    0.000	    0.200	    0.000	    0.000
  200.880	   11.000	    1.646	    0.000	    0.000	    0.200	    0.000	    0.000
  200.890	   11.000	    1.683	    0.000	    0.000	    0.200	    0.000	    0.000
  200.900	   11.000	    1.720	    0.000	    0.000	    0.200	    0.000	    0.000
  200.910	   11.000	    1.758	    0.000	    0.000	    0.200	    0.000	    0.000
  200.920	   11.000	    1.796	    0.000	    0.000	    0.200	    0.000	    0.000
  200.930	   11.000	    1.834	    0.000	    0.000	    0.200	    0.000	    0.000
  200.940	   11.000	    1.873	    0.000	    0.000	    0.200	    0.000	    0.000
  200.950	   11.000	    1.912	    0.000	    0.000	    0.200	    0.000	    0.000
  200.960	   11.000	    1.952	    0.000	    0.000	    0.200	    0.000	    0.000
  200.970	   11.000	    1.992	    0.000	    0.000	    0.200	    0.000	    0.000
  200.980	   11.000	    2.032	    0.000	    0.000	    0.200	    0.000	    0.000
  200.990	   11.000	    2.073	    0.000	    0.000	    0.200	    0.000	    0.000
  201.000	   11.000	    2.114	    0.000	    0.000	    0.200	    0.000	    0.000
  201.010	   11.000	    2.156	    0.000	    0.000	    0.200	    0.000	    0.000
  201.020	   11.000	    2.198	    0.000	    0.000	    0.200	    0.000	    0.000
  201.030	   11.000	    2.240	    0.000	    0.000	    0.200	    0.000	    0.000
  201.040	   11.000	    2.282	    0.000	    0.000	    0.200	    0.000	    0.000
  201.050	   11.000	    2.325	    0.000	    0.000	    0.200	    0.000	    0.000
  201.060	   11.000	    2.369	    0.000	    0.000	    0.200	    0.000	    0.000
  201.070	   11.000	    2.413	    0.000	    0.000	    0.200	    0.000	    0.000
  201.080	   11.000	    2.457	    0.000	    0.000	    0.200	    0.000	    0.000
  201.090	   11.000	    2.501	    0.000	    0.000	    0.200	    0.000	    0.000
  201.100	   11.000	    2.546	    0.000	    0.000	    0.200	    0.000	    0.000
  201.110	   11.000	    2.591	    0.000	    0.000	    0.200	    0.000	    0.000
  201.120	   11.000	    2.637	    0.000	    0.000	    0.200	    0.000	    0.000
  201.130	   11.000	    2.683	    0.000	    0.000	    0.200	    0.000	    0.000
  201.140	   11.000	    2.729	    0.000	    0.000	    0.200	    0.000	    0.000
  201.150	   11.000	    2.775	    0.000	    0.000	    0.200	    0.000	    0.000
  201.160	   11.000	    2.822	    0.000	    0.000	    0.200	    0.000	    0.000
  201.170	   11.000	    2.870	    0.000	    0.000	    0.200	    0.000	    0.000
  201.180	   11.000	    2.917	    0.000	    0.000	    0.200	    0.000	    0.000
  201.190	   11.000	    2.965	    0.000	    0.000	    0.200	    0.000	    0.000
  201.200	   11.000	    3.014	    0.000	    0.000	    0.200	    0.000	    0.000
  201.210	   11.000	    3.063	    0.000	    0.000	    0.200	    0.000	    0.000
  201.220	   11.000	    3.112	    0.000	    0.000	    0.200	    0.000	    0.000
  201.230	   11.000	    3.161	    0.000	    0.000	    0.200	    0.000	    0.000
  201.240	   11.000	    3.211	    0.000	    0.000	    0.200	    0.000	    0.000
  201.250	   11.000	    3.261	    0.000	    0.000	    0.200	    0.000	    0.000
  201.260	   11.000	    3.311	    0.000	    0.000	    0.200	    0.000	    0.000
  201.270	   11.000	    3.362	    0.000	    0.000	    0.200	    0.000	    0.000
  201.280	   11.000	    3.413	    0.000	    0.000	    0.200	    0.000	    0.000
  201.290	   11.000	    3.465	    0.000	    0.000	    0.200	    0.000	    0.000
  201.300	   11.000	    3.517	    0.000	    0.000	    0.200	    0.000	    0.000
  201.310	   11.000	    3.569	    0.000	    0.000	    0.200	    0.000	    0.000
  201.320	   11.000	    3.621	    0.000	    0.000	    0.200	    0.000	    0.000
  201.330	   11.000	    3.674	    0.000	    0.000	    0.200	    0.000	    0.000
  201.340	   11.000	    3.727	    0.000	    0.000	    0.200	    0.000	    0.000
  201.350	   11.000	    3.781	    0.000	    0.000	    0.200	    0.000	    0.000
  201.360	   11.000	    3.835	    0.000	    0.000	    0.200	    0.000	    0.000
  201.370	   11.000	    3.889	    0.000	    0.000	    0.200	    0.000	    0.000
  201.380	   11.000	    3.943	    0.000	    0.000	    0.200	    0.000	    0.000
  201.390	   11.000	    3.998	    0.000	    0.000	    0.200	    0.000	    0.000
  201.400	   11.000	    4.053	    0.000	    0.000	    0.200	    0.000	    0.000
  201.410	   11.000	    4.109	    0.000	    0.000	    0.200	    0.000	    0.000
  201.420	   11.000	    4.165	    0.000	    0.000	    0.200	    0.000	    0.000
  201.430	   11.000	    4.221	    0.000	    0.000	    0.200	    0.000	    0.000
  201.440	   11.000	    4.277	    0.000	    0.000	    0.200	    0.000	    0.000
  201.450	   11.000	    4.334	    0.000	    0.000	    0.200	    0.000	    0.000
  201.460	   11.000	    4.391	    0.000	    0.000	    0.200	    0.000	    0.000
  201.470	   11.000	    4.448	    0.000	    0.000	    0.200	    0.000	    0.000
  201.480	   11.000	    4.506	    0.000	    0.000	    0.200	    0.000	    0.000
  201.490	   11.000	    4.564	    0.000	    0.000	    0.200	    0.000	    0.000
  201.500	   11.000	    4.622	    0.000	    0.000	    0.200	    0.000	    0.000
  201.510	   11.000	    4.681	    0.000	    0.000	    0.200	    0.000	    0.000
  201.520	   11.000	    4.740	    0.000	    0.000	    0.200	    0.000	    0.000
  201.530	   11.000	    4.799	    0.000	    0.000	    0.200	    0.000	    0.000
  201.540	   11.000	    4.858	    0.000	    0.000	    0.200	    0.000	    0.000
  201.550	   11.000	    4.918	    0.000	    0.000	    0.200	    0.000	    0.000
  201.560	   11.000	    4.978	    0.000	    0.000	    0.200	    0.000	    0.000
  201.570	   11.000	    5.038	    0.000	    0.000	    0.200	    0.000	    0.000
  201.580	   11.000	    5.099	    0.000	    0.000	    0.200	    0.000	    0.000
  201.590	   11.000	    5.160	    0.000	    0.000	    0.200	    0.000	    0.000
  201.600	   11.000	    5.221	    0.000	    0.000	    0.200	    0.000	    0.000
  201.610	   11.000	    5.283	    0.000	    0.000	    0.200	    0.000	    0.000
  201.620	   11.000	    5.345	    0.000	    0.000	    0.200	    0.000	    0.000
  201.630	   11.000	    5.407	    0.000	    0.000	    0.200	    0.000	    0.000
  201.640	   11.000	    5.469	    0.000	    0.000	    0.200	    0.000	    0.000
  201.650	   11.000	    5.532	    0.000	    0.000	    0.200	    0.000	    0.000
  201.660	   11.000	    5.595	    0.000	    0.000	    0.200	    0.000	    0.000
  201.670	   11.000	    5.658	    0.000	    0.000	    0.200	    0.000	    0.000
  201.680	   11.000	    5.722	    0.000	    0.000	    0.200	    0.000	    0.000
  201.690	   11.000	    5.785	    0.000	    0.000	    0.200	    0.000	    0.000
  201.700	   11.000	    5.850	    0.000	    0.000	    0.200	    0.000	    0.000
  201.710	   11.000	    5.914	    0.000	    0.000	    0.200	    0.000	    0.000
  201.720	   11.000	    5.979	    0.000	    0.000	    0.200	    0.000	    0.000
  201.730	   11.000	    6.043	    0.000	    0.000	    0.200	    0.000	    0.000
  201.740	   11.000	    6.109	    0.000	    0.000	    0.200	    0.000	    0.000
  201.750	   11.000	    6.174	    0.000	    0.000	    0.200	    0.000	    0.000
  201.760	   11.000	    6.240	    0.000	    0.000	    0.200	    0.000	    0.000
  201.770	   11.000	    6.306	    0.000	    0.000	    0.200	    0.000	    0.000
  201.780	   11.000	    6.372	    0.000	    0.000	    0.200	    0.000	    0.000
  201.790	   11.000	    6.438	    0.000	    0.000	    0.200	    0.000	    0.000
  201.800	   11.000	    6.505	    0.000	    0.000	    0.200	    0.000	    0.000
  201.810	   11.000	    6.572	    0.000	    0.000	    0.200	    0.000	    0.000
  201.820	   11.000	    6.639	    0.000	    0.000	    0.200	    0.000	    0.000
  201.830	   11.000	    6.707	    0.000	    0.000	    0.200	    0.000	    0.000
  201.840	   11.000	    6.774	    0.000	    0.000	    0.200	    0.000	    0.000
  201.850	   11.000	    6.842	    0.000	    0.000	    0.200	    0.000	    0.000
  201.860	   11.000	    6.911	    0.000	    0.000	    0.200	    0.000	    0.000
  201.870	   11.000	    6.979	    0.000	    0.000	    0.200	    0.000	    0.000
  201.880	   11.000	    7.048	    0.000	    0.000	    0.200	    0.000	    0.000
  201.890	   11.000	    7.117	    0.000	    0.000	    0.200	    0.000	    0.000
  201.900	   11.000	    7.186	    0.000	    0.000	    0.200	    0.000	    0.000
  201.910	   11.000	    7.255	    0.000	    0.000	    0.200	    0.000	    0.000
  201.920	   11.000	    7.325	    0.000	    0.000	    0.200	    0.000	    0.000
  201.930	   11.000	    7.395	    0.000	    0.000	    0.200	    0.000	    0.000
  201.940	   11.000	    7.465	    0.000	    0.000	    0.200	    0.000	    0.000
  201.950	   11.000	    7.535	    0.000	    0.000	    0.200	    0.000	    0.000
  201.960	   11.000	    7.606	    0.000	    0.000	    0.200	    0.000	    0.000
  201.970	   11.000	    7.677	    0.000	    0.000	    0.200	    0.000	    0.000
  201.980	   11.000	    7.748	    0.000	    0.000	    0.200	    0.000	    0.000
  201.990	   11.000	    7.819	    0.000	    0.000	    0.200	    0.000	    0.000
  202.000	   11.000	    7.890	    0.000	    0.000	    0.200	    0.000	    0.000
  202.010	   11.000	    7.962	    0.000	    0.000	    0.200	    0.000	    0.000
  202.020	   11.000	    8.034	    0.000	    0.000	    0.200	    0.000	    0.000
  202.030	   11.000	    8.106	    0.000	    0.000	    0.200	    0.000	    0.000
  202.040	   11.000	    8.178	    0.000	    0.000	    0.200	    0.000	    0.000
  202.050	   11.000	    8.251	    0.000	    0.000	    0.200	    0.000	    0.000
  202.060	   11.000	    8.323	    0.000	    0.000	    0.200	    0.000	    0.000
  202.070	   11.000	    8.396	    0.000	    0.000	    0.200	    0.000	    0.000
  202.080	   11.000	    8.469	    0.000	    0.000	    0.200	    0.000	    0.000
  202.090	   11.000	    8.543	    0.000	    0.000	    0.200	    0.000	    0.000
  202.100	   11.000	    8.616	    0.000	    0.000	    0.200	    0.000	    0.000
  202.110	   11.000	    8.690	    0.000	    0.000	    0.200	    0.000	    0.000
  202.120	   11.000	    8.764	    0.000	    0.000	    0.200	    0.000	    0.000
  202.130	   11.000	    8.838	    0.000	    0.000	    0.200	    0.000	    0.000
  202.140	   11.000	    8.912	    0.000	    0.000	    0.200	    0.000	    0.000
  202.150	   11.000	    8.987	    0.000	    0.000	    0.200	    0.000	    0.000
  202.160	   11.000	    9.062	    0.000	    0.000	    0.200	    0.000	    0.000
  202.170	   11.000	    9.136	    0.000	    0.000	    0.200	    0.000	    0.000
  202.180	   11.000	    9.211	    0.000	    0.000	    0.200	    0.000	    0.000
  202.190	   11.000	    9.287	    0.000	    0.000	    0.200	    0.000	    0.000
  202.200	   11.000	    9.362	    0.000	    0.000	    0.200	    0.000	    0.000
  202.210	   11.000	    9.438	    0.000	    0.000	    0.200	    0.000	    0.000
  202.220	   11.000	    9.513	    0.000	    0.000	    0.200	    0.000	    0.000
  202.230	   11.000	    9.589	    0.000	    0.000	    0.200	    0.000	    0.000
  202.240	   11.000	    9.665	    0.000	    0.000	    0.200	    0.000	    0.000
  202.250	   11.000	    9.742	    0.000	    0.000	    0.200	    0.000	    0.000
  202.260	   11.000	    9.818	    0.000	    0.000	    0.200	    0.000	    0.000
  202.270	   11.000	    9.895	    0.000	    0.000	    0.200	    0.000	    0.000
  202.280	   11.000	    9.971	    0.000	    0.000	    0.200	    0.000	    0.000
  202.290	   11.000	   10.048	    0.000	    0.000	    0.200	    0.000	    0.000
  202.300	   11.000	   10.125	    0.000	    0.000	    0.200	    0.000	    0.000
  202.310	   11.000	   10.202	    0.000	    0.000	    0.200	    0.000	    0.000
  202.320	   11.000	   10.280	    0.000	    0.000	    0.200	    0.000	    0.000
  202.330	   11.000	   10.357	    0.000	    0.000	    0.200	    0.000	    0.000
  202.340	   11.000	   10.435	    0.000	    0.000	    0.200	    0.000	    0.000
  202.350	   11.000	   10.513	    0.000	    0.000	    0.200	    0.000	    0.000
  202.360	   11.000	   10.591	    0.000	    0.000	    0.200	    0.000	    0.000
  202.370	   11.000	   10.669	    0.000	    0.000	    0.200	    0.000	    0.000
  202.380	   11.000	   10.747	    0.000	    0.000	    0.200	    0.000	    0.000
  202.390	   11.000	   10.826	    0.000	    0.000	    0.200	    0.000	    0.000
  202.400	   11.000	   10.904	    0.000	    0.000	    0.200	    0.000	    0.000
  202.410	   11.000	   10.983	    0.000	    0.000	    0.200	    0.000	    0.000
  202.420	   11.000	   11.062	    0.000	    0.000	    0.200	    0.000	    0.000
  202.430	   11.000	   11.140	    0.000	    0.000	    0.200	    0.000	    0.000
  202.440	   11.000	   11.219	    0.000	    0.000	    0.200	    0.000	    0.000
  202.450	   11.000	   11.299	    0.000	    0.000	    0.200	    0.000	    0.000
  202.460	   11.000	   11.378	    0.000	    0.000	    0.200	    0.000	    0.000
  202.470	   11.000	   11.457	    0.000	    0.000	    0.200	    0.000	    0.000
  202.480	   11.000	   11.537	    0.000	    0.000	    0.200	    0.000	    0.000
  202.490	   11.000	   11.617	    0.000	    0.000	    0.200	    0.000	    0.000
  202.500	   11.000	   11.696	    0.000	    0.000	    0.200	    0.000	    0.000
  202.510	   11.000	   11.776	    0.000	    0.000	    0.200	    0.000	    0.000
  202.520	   11.000	   11.856	    0.000	    0.000	    0.200	    0.000	    0.000
  202.530	   11.000	   11.936	    0.000	    0.000	    0.200	    0.000	    0.000
  202.540	   11.000	   12.016	    0.000	    0.000	    0.200	    0.000	    0.000
  202.550	   11.000	   12.097	    0.000	    0.000	    0.200	    0.000	    0.000
  202.560	   11.000	   12.177	    0.000	    0.000	    0.200	    0.000	    0.000
  202.570	   11.000	   12.258	    0.000	    0.000	    0.200	    0.000	    0.000
  202.580	   11.000	   12.338	    0.000	    0.000	    0.200	    0.000	    0.000
  202.590	   11.000	   12.419	    0.000	    0.000	    0.200	    0.000	    0.000
  202.600	   11.000	   12.500	    0.000	    0.000	    0.200	    0.000	    0.000
  202.610	   11.000	   12.580	    0.000	    0.000	    0.200	    0.000	    0.000
  202.620	   11.000	   12.661	    0.000	    0.000	    0.200	    0.000	    0.000
  202.630	   11.000	   12.742	    0.000	    0.000	    0.200	    0.000	    0.000
  202.640	   11.000	   12.824	    0.000	    0.000	    0.200	    0.000	    0.000
  202.650	   11.000	   12.905	    0.000	    0.000	    0.200	    0.000	    0.000
  202.660	   11.000	   12.986	    0.000	    0.000	    0.200	    0.000	    0.000
  202.670	   11.000	   13.067	    0.000	    0.000	    0.200	    0.000	    0.000
  202.680	   11.000	   13.149	    0.000	    0.000	    0.200	    0.000	    0.000
  202.690	   11.000	   13.230	    0.000	    0.000	    0.200	    0.000	    0.000
  202.700	   11.000	   13.312	    0.000	    0.000	    0.200	    0.000	    0.000
  202.710	   11.000	   13.394	    0.000	    0.000	    0.200	    0.000	    0.000
  202.720	   11.000	   13.475	    0.000	    0.000	    0.200	    0.000	    0.000
  202.730	   11.000	   13.557	    0.000	    0.000	    0.200	    0.000	    0.000
  202.740	   11.000	   13.639	    0.000	    0.000	    0.200	    0.000	    0.000
  202.750	   11.000	   13.721	    0.000	    0.000	    0.200	    0.000	    0.000
  202.760	   11.000	   13.803	    0.000	    0.000	    0.200	    0.000	    0.000
  202.770	   11.000	   13.885	    0.000	    0.000	    0.200	    0.000	    0.000
  202.780	   11.000	   13.967	    0.000	    0.000	    0.200	    0.000	    0.000
  202.790	   11.000	   14.049	    0.000	    0.000	    0.200	    0.000	    0.000
  202.800	   11.000	   14.131	    0.000	    0.000	    0.200	    0.000	    0.000
  202.810	   11.000	   14.213	    0.000	    0.000	    0.200	    0.000	    0.000
  202.820	   11.000	   14.296	    0.000	    0.000	    0.200	    0.000	    0.000
  202.830	   11.000	   14.378	    0.000	    0.000	    0.200	    0.000	    0.000
  202.840	   11.000	   14.460	    0.000	    0.000	    0.200	    0.000	    0.000
  202.850	   11.000	   14.542	    0.000	    0.000	    0.200	    0.000	    0.000
  202.860	   11.000	   14.625	    0.000	    0.000	    0.200	    0.000	    0.000
  202.870	   11.000	   14.707	    0.000	    0.000	    0.200	    0.000	    0.000
  202.880	   11.000	   14.790	    0.000	    0.000	    0.200	    0.000	    0.000
  202.890	   11.000	   14.872	    0.000	    0.000	    0.200	    0.000	    0.000
  202.900	   11.000	   14.955	    0.000	    0.000	    0.200	    0.000	    0.000
  202.910	   11.000	   15.037	    0.000	    0.000	    0.200	    0.000	    0.000
  202.920	   11.000	   15.120	    0.000	    0.000	    0.200	    0.000	    0.000
  202.930	   11.000	   15.202	    0.000	    0.000	    0.200	    0.000	    0.000
  202.940	   11.000	   15.285	    0.000	    0.000	    0.200	    0.000	    0.000
  202.950	   11.000	   15.367	    0.000	    0.000	    0.200	    0.000	    0.000
  202.960	   11.000	   15.450	    0.000	    0.000	    0.200	    0.000	    0.000
  202.970	   11.000	   15.533	    0.000	    0.000	    0.200	    0.000	    0.000
  202.980	   11.000	   15.615	    0.000	    0.000	    0.200	    0.000	    0.000
  202.990	   11.000	   15.698	    0.000	    0.000	    0.200	    0.000	    0.000
  203.000	   11.000	   15.781	    0.000	    0.000	    0.200	    0.000	    0.000
  203.010	   11.000	   15.863	    0.000	    0.000	    0.200	    0.000	    0.000
  203.020	   11.000	   15.946	    0.000	    0.000	    0.200	    0.000	    0.000
  203.030	   11.000	   16.028	    0.000	    0.000	    0.200	    0.000	    0.000
  203.040	   11.000	   16.111	    0.000	    0.000	    0.200	    0.000	    0.000
  203.050	   11.000	   16.194	    0.000	    0.000	    0.200	    0.000	    0.000
  203.060	   11.000	   16.276	    0.000	    0.000	    0.200	    0.000	    0.000
  203.070	   11.000	   16.359	    0.000	    0.000	    0.200	    0.000	    0.000
  203.080	   11.000	   16.441	    0.000	    0.000	    0.200	    0.000	    0.000
  203.090	   11.000	   16.524	    0.000	    0.000	    0.200	    0.000	    0.000
  203.100	   11.000	   16.606	    0.000	    0.000	    0.200	    0.000	    0.000
  203.110	   11.000	   16.689	    0.000	    0.000	    0.200	    0.000	    0.000
  203.120	   11.000	   16.771	    0.000	    0.000	    0.200	    0.000	    0.000
  203.130	   11.000	   16.854	    0.000	    0.000	    0.200	    0.000	    0.000
  203.140	   11.000	   16.936	    0.000	    0.000	    0.200	    0.000	    0.000
  203.150	   11.000	   17.019	    0.000	    0.000	    0.200	    0.000	    0.000
  203.160	   11.000	   17.101	    0.000	    0.000	    0.200	    0.000	    0.000
  203.170	   11.000	   17.183	    0.000	    0.000	    0.200	    0.000	    0.000
  203.180	   11.000	   17.266	    0.000	    0.000	    0.200	    0.000	    0.000
  203.190	   11.000	   17.348	    0.000	    0.000	    0.200	    0.000	    0.000
  203.200	   11.000	   17.430	    0.000	    0.000	    0.200	    0.000	    0.000
  203.210	   11.000	   17.512	    0.000	    0.000	    0.200	    0.000	    0.000
  203.220	   11.000	   17.594	    0.000	    0.000	    0.200	    0.000	    0.000
  203.230	   11.000	   17.676	    0.000	    0.000	    0.200	    0.000	    0.000
  203.240	   11.000	   17.758	    0.000	    0.000	    0.200	    0.000	    0.000
  203.250	   11.000	   17.840	    0.000	    0.000	    0.200	    0.000	    0.000
  203.260	   11.000	   17.922	    0.000	    0.000	    0.200	    0.000	    0.000
  203.270	   11.000	   18.004	    0.000	    0.000	    0.200	    0.000	    0.000
  203.280	   11.000	   18.086	    0.000	    0.000	    0.200	    0.000	    0.000
  203.290	   11.000	   18.167	    0.000	    0.000	    0.200	    0.000	    0.000
  203.300	   11.000	   18.249	    0.000	    0.000	    0.200	    0.000	    0.000
  203.310	   11.000	   18.331	    0.000	    0.000	    0.200	    0.000	    0.000
  203.320	   11.000	   18.412	    0.000	    0.000	    0.200	    0.000	    0.000
  203.330	   11.000	   18.494	    0.000	    0.000	    0.200	    0.000	    0.000
  203.340	   11.000	   18.575	    0.000	    0.000	    0.200	    0.000	    0.000
  203.350	   11.000	   18.656	    0.000	    0.000	    0.200	    0.000	    0.000
  203.360	   11.000	   18.738	    0.000	    0.000	    0.200	    0.000	    0.000
  203.370	   11.000	   18.819	    0.000	    0.000	    0.200	    0.000	    0.000
  203.380	   11.000	   18.900	    0.000	    0.000	    0.200	    0.000	    0.000
  203.390	   11.000	   18.981	    0.000	    0.000	    0.200	    0.000	    0.000
  203.400	   11.000	   19.061	    0.000	    0.000	    0.200	    0.000	    0.000
  203.410	   11.000	   19.142	    0.000	    0.000	    0.200	    0.000	    0.000
  203.420	   11.000	   19.223	    0.000	    0.000	    0.200	    0.000	    0.000
  203.430	   11.000	   19.303	    0.000	    0.000	    0.200	    0.000	    0.000
  203.440	   11.000	   19.384	    0.000	    0.000	    0.200	    0.000	    0.000
  203.450	   11.000	   19.464	    0.000	    0.000	    0.200	    0.000	    0.000
  203.460	   11.000	   19.545	    0.000	    0.000	    0.200	    0.000	    0.000
  203.470	   11.000	   19.625	    0.000	    0.000	    0.200	    0.000	    0.000
  203.480	   11.000	   19.705	    0.000	    0.000	    0.200	    0.000	    0.000
  203.490	   11.000	   19.785	    0.000	    0.000	    0.200	    0.000	    0.000
  203.500	   11.000	   19.865	    0.000	    0.000	    0.200	    0.000	    0.000
  203.510	   11.000	   19.945	    0.000	    0.000	    0.200	    0.000	    0.000
  203.520	   11.000	   20.024	    0.000	    0.000	    0.200	    0.000	    0.000
  203.530	   11.000	   20.104	    0.000	    0.000	    0.200	    0.000	    0.000
  203.540	   11.000	   20.183	    0.000	    0.000	    0.200	    0.000	    0.000
  203.550	   11.000	   20.262	    0.000	    0.000	    0.200	    0.000	    0.000
  203.560	   11.000	   20.342	    0.000	    0.000	    0.200	    0.000	    0.000
  203.570	   11.000	   20.421	    0.000	    0.000	    0.200	    0.000	    0.000
  203.580	   11.000	   20.500	    0.000	    0.000	    0.200	    0.000	    0.000
  203.590	   11.000	   20.578	    0.000	    0.000	    0.200	    0.000	    0.000
  203.600	   11.000	   20.657	    0.000	    0.000	    0.200	    0.000	    0.000
  203.610	   11.000	   20.736	    0.000	    0.000	    0.200	    0.000	    0.000
  203.620	   11.000	   20.814	    0.000	    0.000	    0.200	    0.000	    0.000
  203.630	   11.000	   20.892	    0.000	    0.000	    0.200	    0.000	    0.000
  203.640	   11.000	   20.970	    0.000	    0.000	    0.200	    0.000	    0.000
  203.650	   11.000	   21.048	    0.000	    0.000	    0.200	    0.000	    0.000
  203.660	   11.000	   21.126	    0.000	    0.000	    0.200	    0.000	    0.000
  203.670	   11.000	   21.204	    0.000	    0.000	    0.200	    0.000	    0.000
  203.680	   11.000	   21.281	    0.000	    0.000	    0.200	    0.000	    0.000
  203.690	   11.000	   21.359	    0.000	    0.000	    0.200	    0.000	    0.000
  203.700	   11.000	   21.436	    0.000	    0.000	    0.200	    0.000	    0.000
  203.710	   11.000	   21.513	    0.000	    0.000	    0.200	    0.000	    0.000
  203.720	   11.000	   21.590	    0.000	    0.000	    0.200	    0.000	    0.000
  203.730	   11.000	   21.666	    0.000	    0.000	    0.200	    0.000	    0.000
  203.740	   11.000	   21.743	    0.000	    0.000	    0.200	    0.000	    0.000
  203.750	   11.000	   21.820	    0.000	    0.000	    0.200	    0.000	    0.000
  203.760	   11.000	   21.896	    0.000	    0.000	    0.200	    0.000	    0.000
  203.770	   11.000	   21.972	    0.000	    0.000	    0.200	    0.000	    0.000
  203.780	   11.000	   22.048	    0.000	    0.000	    0.200	    0.000	    0.000
  203.790	   11.000	   22.123	    0.000	    0.000	    0.200	    0.000	    0.000
  203.800	   11.000	   22.199	    0.000	    0.000	    0.200	    0.000	    0.000
  203.810	   11.000	   22.274	    0.000	    0.000	    0.200	    0.000	    0.000
  203.820	   11.000	   22.350	    0.000	    0.000	    0.200	    0.000	    0.000
  203.830	   11.000	   22.425	    0.000	    0.000	    0.200	    0.000	    0.000
  203.840	   11.000	   22.500	    0.000	    0.000	    0.200	    0.000	    0.000
  203.850	   11.000	   22.574	    0.000	    0.000	    0.200	    0.000	    0.000
  203.860	   11.000	   22.649	    0.000	    0.000	    0.200	    0.000	    0.000
  203.870	   11.000	   22.723	    0.000	    0.000	    0.200	    0.000	    0.000
  203.880	   11.000	   22.797	    0.000	    0.000	    0.200	    0.000	    0.000
  203.890	   11.000	   22.871	    0.000	    0.000	    0.200	    0.000	    0.000
  203.900	   11.000	   22.945	    0.000	    0.000	    0.200	    0.000	    0.000
  203.910	   11.000	   23.018	    0.000	    0.000	    0.200	    0.000	    0.000
  203.920	   11.000	   23.092	    0.000	    0.000	    0.200	    0.000	    0.000
  203.930	   11.000	   23.165	    0.000	    0.000	    0.200	    0.000	    0.000
  203.940	   11.000	   23.238	    0.000	    0.000	    0.200	    0.000	    0.000
  203.950	   11.000	   23.310	    0.000	    0.000	    0.200	    0.000	    0.000
  203.960	   11.000	   23.383	    0.000	    0.000	    0.200	    0.000	    0.000
  203.970	   11.000	   23.455	    0.000	    0.000	    0.200	    0.000	    0.000
  203.980	   11.000	   23.527	    0.000	    0.000	    0.200	    0.000	    0.000
  203.990	   11.000	   23.599	    0.000	    0.000	    0.200	    0.000	    0.000
  204.000	   11.000	   23.671	    0.000	    0.000	    0.200	    0.000	    0.000
  204.010	   11.000	   23.742	    0.000	    0.000	    0.200	    0.000	    0.000
  204.020	   11.000	   23.814	    0.000	    0.000	    0.200	    0.000	    0.000
  204.030	   11.000	   23.885	    0.000	    0.000	    0.200	    0.000	    0.000
  204.040	   11.000	   23.955	    0.000	    0.000	    0.200	    0.000	    0.000
  204.050	   11.000	   24.026	    0.000	    0.000	    0.200	    0.000	    0.000
  204.060	   11.000	   24.096	    0.000	    0.000	    0.200	    0.000	    0.000
  204.070	   11.000	   24.166	    0.000	    0.000	    0.200	    0.000	    0.000
  204.080	   11.000	   24.236	    0.000	    0.000	    0.200	    0.000	    0.000
  204.090	   11.000	   24.306	    0.000	    0.000	    0.200	    0.000	    0.000
  204.100	   11.000	   24.375	    0.000	    0.000	    0.200	    0.000	    0.000
  204.110	   11.000	   24.444	    0.000	    0.000	    0.200	    0.000	    0.000
  204.120	   11.000	   24.513	    0.000	    0.000	    0.200	    0.000	    0.000
  204.130	   11.000	   24.582	    0.000	    0.000	    0.200	    0.000	    0.000
  204.140	   11.000	   24.651	    0.000	    0.000	    0.200	    0.000	    0.000
  204.150	   11.000	   24.719	    0.000	    0.000	    0.200	    0.000	    0.000
  204.160	   11.000	   24.787	    0.000	    0.000	    0.200	    0.000	    0.000
  204.170	   11.000	   24.854	    0.000	    0.000	    0.200	    0.000	    0.000
  204.180	   11.000	   24.922	    0.000	    0.000	    0.200	    0.000	    0.000
  204.190	   11.000	   24.989	    0.000	    0.000	    0.200	    0.000	    0.000
  204.200	   11.000	   25.056	    0.000	    0.000	    0.200	    0.000	    0.000
  204.210	   11.000	   25.123	    0.000	    0.000	    0.200	    0.000	    0.000
  204.220	   11.000	   25.189	    0.000	    0.000	    0.200	    0.000	    0.000
  204.230	   11.000	   25.255	    0.000	    0.000	    0.200	    0.000	    0.000
  204.240	   11.000	   25.321	    0.000	    0.000	    0.200	    0.000	    0.000
  204.250	   11.000	   25.387	    0.000	    0.000	    0.200	    0.000	    0.000
  204.260	   11.000	   25.453	    0.000	    0.000	    0.200	    0.000	    0.000
  204.270	   11.000	   25.518	    0.000	    0.000	    0.200	    0.000	    0.000
  204.280	   11.000	   25.583	    0.000	    0.000	    0.200	    0.000	    0.000
  204.290	   11.000	   25.647	    0.000	    0.000	    0.200	    0.000	    0.000
  204.300	   11.000	   25.712	    0.000	    0.000	    0.200	    0.000	    0.000
  204.310	   11.000	   25.776	    0.000	    0.000	    0.200	    0.000	    0.000
  204.320	   11.000	   25.840	    0.000	    0.000	    0.200	    0.000	    0.000
  204.330	   11.000	   25.903	    0.000	    0.000	    0.200	    0.000	    0.000
  204.340	   11.000	   25.966	    0.000	    0.000	    0.200	    0.000	    0.000
  204.350	   11.000	   26.029	    0.000	    0.000	    0.200	    0.000	    0.000
  204.360	   11.000	   26.092	    0.000	    0.000	    0.200	    0.000	    0.000
  204.370	   11.000	   26.154	    0.000	    0.000	    0.200	    0.000	    0.000
  204.380	   11.000	   26.216	    0.000	    0.000	    0.200	    0.000	    0.000
  204.390	   11.000	   26.278	    0.000	    0.000	    0.200	    0.000	    0.000
  204.400	   11.000	   26.340	    0.000	    0.000	    0.200	    0.000	    0.000
  204.410	   11.000	   26.401	    0.000	    0.000	    0.200	    0.000	    0.000
  204.420	   11.000	   26.462	    0.000	    0.000	    0.200	    0.000	    0.000
  204.430	   11.000	   26.523	    0.000	    0.000	    0.200	    0.000	    0.000
  204.440	   11.000	   26.583	    0.000	    0.000	    0.200	    0.000	    0.000
  204.450	   11.000	   26.643	    0.000	    0.000	    0.200	    0.000	    0.000
  204.460	   11.000	   26.703	    0.000	    0.000	    0.200	    0.000	    0.000
  204.470	   11.000	   26.762	    0.000	    0.000	    0.200	    0.000	    0.000
  204.480	   11.000	   26.822	    0.000	    0.000	    0.200	    0.000	    0.000
  204.490	   11.000	   26.881	    0.000	    0.000	    0.200	    0.000	    0.000
  204.500	   11.000	   26.939	    0.000	    0.000	    0.200	    0.000	    0.000
  204.510	   11.000	   26.997	    0.000	    0.000	    0.200	    0.000	    0.000
  204.520	   11.000	   27.055	    0.000	    0.000	    0.200	    0.000	    0.000
  204.530	   11.000	   27.113	    0.000	    0.000	    0.200	    0.000	    0.000
  204.540	   11.000	   27.170	    0.000	    0.000	    0.200	    0.000	    0.000
  204.550	   11.000	   27.227	    0.000	    0.000	    0.200	    0.000	    0.000
  204.560	   11.000	   27.284	    0.000	    0.000	    0.200	    0.000	    0.000
  204.570	   11.000	   27.341	    0.000	    0.000	    0.200	    0.000	    0.000
  204.580	   11.000	   27.397	    0.000	    0.000	    0.200	    0.000	    0.000
  204.590	   11.000	   27.452	    0.000	    0.000	    0.200	    0.000	    0.000
  204.600	   11.000	   27.508	    0.000	    0.000	    0.200	    0.000	    0.000
  204.610	   11.000	   27.563	    0.000	    0.000	    0.200	    0.000	    0.000
  204.620	   11.000	   27.618	    0.000	    0.000	    0.200	    0.000	    0.000
  204.630	   11.000	   27.672	    0.000	    0.000	    0.200	    0.000	    0.000
  204.640	   11.000	   27.726	    0.000	    0.000	    0.200	    0.000	    0.000
  204.650	   11.000	   27.780	    0.000	    0.000	    0.200	    0.000	    0.000
  204.660	   11.000	   27.834	    0.000	    0.000	    0.200	    0.000	    0.000
  204.670	   11.000	   27.887	    0.000	    0.000	    0.200	    0.000	    0.000
  204.680	   11.000	   27.940	    0.000	    0.000	    0.200	    0.000	    0.000
  204.690	   11.000	   27.992	    0.000	    0.000	    0.200	    0.000	    0.000
  204.700	   11.000	   28.044	    0.000	    0.000	    0.200	    0.000	    0.000
  204.710	   11.000	   28.096	    0.000	    0.000	    0.200	    0.000	    0.000
  204.720	   11.000	   28.148	    0.000	    0.000	    0.200	    0.000	    0.000
  204.730	   11.000	   28.199	    0.000	    0.000	    0.200	    0.000	    0.000
  204.740	   11.000	   28.250	    0.000	    0.000	    0.200	    0.000	    0.000
  204.750	   11.000	   28.300	    0.000	    0.000	    0.200	    0.000	    0.000
  204.760	   11.000	   28.350	    0.000	    0.000	    0.200	    0.000	    0.000
  204.770	   11.000	   28.400	    0.000	    0.000	    0.200	    0.000	    0.000
  204.780	   11.000	   28.449	    0.000	    0.000	    0.200	    0.000	    0.000
  204.790	   11.000	   28.499	    0.000	    0.000	    0.200	    0.000	    0.000
  204.800	   11.000	   28.547	    0.000	    0.000	    0.200	    0.000	    0.000
  204.810	   11.000	   28.596	    0.000	    0.000	    0.200	    0.000	    0.000
  204.820	   11.000	   28.644	    0.000	    0.000	    0.200	    0.000	    0.000
  204.830	   11.000	   28.691	    0.000	    0.000	    0.200	    0.000	    0.000
  204.840	   11.000	   28.739	    0.000	    0.000	    0.200	    0.000	    0.000
  204.850	   11.000	   28.786	    0.000	    0.000	    0.200	    0.000	    0.000
  204.860	   11.000	   28.832	    0.000	    0.000	    0.200	    0.000	    0.000
  204.870	   11.000	   28.879	    0.000	    0.000	    0.200	    0.000	    0.000
  204.880	   11.000	   28.925	    0.000	    0.000	    0.200	    0.000	    0.000
  204.890	   11.000	   28.970	    0.000	    0.000	    0.200	    0.000	    0.000
  204.900	   11.000	   29.015	    0.000	    0.000	    0.200	    0.000	    0.000
  204.910	   11.000	   29.060	    0.000	    0.000	    0.200	    0.000	    0.000
  204.920	   11.000	   29.105	    0.000	    0.000	    0.200	    0.000	    0.000
  204.930	   11.000	   29.149	    0.000	    0.000	    0.200	    0.000	    0.000
  204.940	   11.000	   29.192	    0.000	    0.000	    0.200	    0.000	    0.000
  204.950	   11.000	   29.236	    0.000	    0.000	    0.200	    0.000	    0.000
  204.960	   11.000	   29.279	    0.000	    0.000	    0.200	    0.000	    0.000
  204.970	   11.000	   29.321	    0.000	    0.000	    0.200	    0.000	    0.000
  204.980	   11.000	   29.364	    0.000	    0.000	    0.200	    0.000	    0.000
  204.990	   11.000	   29.405	    0.000	    0.000	    0.200	    0.000	    0.000
  205.000	   11.000	   29.447	    0.000	    0.000	    0.200	    0.000	    0.000
  205.010	   11.000	   29.488	    0.000	    0.000	    0.200	    0.000	    0.000
  205.020	   11.000	   29.529	    0.000	    0.000	    0.200	    0.000	    0.000
  205.030	   11.000	   29.569	    0.000	    0.000	    0.200	    0.000	    0.000
  205.040	   11.000	   29.609	    0.000	    0.000	    0.200	    0.000	    0.000
  205.050	   11.000	   29.649	    0.000	    0.000	    0.200	    0.000	    0.000
  205.060	   11.000	   29.688	    0.000	    0.000	    0.200	    0.000	    0.000
  205.070	   11.000	   29.727	    0.000	    0.000	    0.200	    0.000	    0.000
  205.080	   11.000	   29.765	    0.000	    0.000	    0.200	    0.000	    0.000
  205.090	   11.000	   29.803	    0.000	    0.000	    0.200	    0.000	    0.000
  205.100	   11.000	   29.841	    0.000	    0.000	    0.200	    0.000	    0.000
  205.110	   11.000	   29.878	    0.000	    0.000	    0.200	    0.000	    0.000
  205.120	   11.000	   29.915	    0.000	    0.000	    0.200	    0.000	    0.000
  205.130	   11.000	   29.952	    0.000	    0.000	    0.200	    0.000	    0.000
  205.140	   11.000	   29.988	    0.000	    0.000	    0.200	    0.000	    0.000
  205.150	   11.000	   30.024	    0.000	    0.000	    0.200	    0.000	    0.000
  205.160	   11.000	   30.059	    0.000	    0.000	    0.200	    0.000	    0.000
  205.170	   11.000	   30.094	    0.000	    0.000	    0.200	    0.000	    0.000
  205.180	   11.000	   30.129	    0.000	    0.000	    0.200	    0.000	    0.000
  205.190	   11.000	   30.163	    0.000	    0.000	    0.200	    0.000	    0.000
  205.200	   11.000	   30.197	    0.000	    0.000	    0.200	    0.000	    0.000
  205.210	   11.000	   30.230	    0.000	    0.000	    0.200	    0.000	    0.000
  205.220	   11.000	   30.263	    0.000	    0.000	    0.200	    0.000	    0.000
  205.230	   11.000	   30.296	    0.000	    0.000	    0.200	    0.000	    0.000
  205.240	   11.000	   30.328	    0.000	    0.000	    0.200	    0.000	    0.000
  205.250	   11.000	   30.360	    0.000	    0.000	    0.200	    0.000	    0.000
  205.260	   11.000	   30.391	    0.000	    0.000	    0.200	    0.000	    0.000
  205.270	   11.000	   30.422	    0.000	    0.000	    0.200	    0.000	    0.000
  205.280	   11.000	   30.453	    0.000	    0.000	    0.200	    0.000	    0.000
  205.290	   11.000	   30.483	    0.000	    0.000	    0.200	    0.000	    0.000
  205.300	   11.000	   30.513	    0.000	    0.000	    0.200	    0.000	    0.000
  205.310	   11.000	   30.542	    0.000	    0.000	    0.200	    0.000	    0.000
  205.320	   11.000	   30.571	    0.000	    0.000	    0.200	    0.000	    0.000
  205.330	   11.000	   30.600	    0.000	    0.000	    0.200	    0.000	    0.000
  205.340	   11.000	   30.628	    0.000	    0.000	    0.200	    0.000	    0.000
  205.350	   11.000	   30.656	    0.000	    0.000	    0.200	    0.000	    0.000
  205.360	   11.000	   30.683	    0.000	    0.000	    0.200	    0.000	    0.000
  205.370	   11.000	   30.710	    0.000	    0.000	    0.200	    0.000	    0.000
  205.380	   11.000	   30.737	    0.000	    0.000	    0.200	    0.000	    0.000
  205.390	   11.000	   30.763	    0.000	    0.000	    0.200	    0.000	    0.000
  205.400	   11.000	   30.789	    0.000	    0.000	    0.200	    0.000	    0.000
  205.410	   11.000	   30.814	    0.000	    0.000	    0.200	    0.000	    0.000
  205.420	   11.000	   30.839	    0.000	    0.000	    0.200	    0.000	    0.000
  205.430	   11.000	   30.863	    0.000	    0.000	    0.200	    0.000	    0.000
  205.440	   11.000	   30.888	    0.000	    0.000	    0.200	    0.000	    0.000
  205.450	   11.000	   30.911	    0.000	    0.000	    0.200	    0.000	    0.000
  205.460	   11.000	   30.935	    0.000	    0.000	    0.200	    0.000	    0.000
  205.470	   11.000	   30.957	    0.000	    0.000	    0.200	    0.000	    0.000
  205.480	   11.000	   30.980	    0.000	    0.000	    0.200	    0.000	    0.000
  205.490	   11.000	   31.002	    0.000	    0.000	    0.200	    0.000	    0.000
  205.500	   11.000	   31.023	    0.000	    0.000	    0.200	    0.000	    0.000
  205.510	   11.000	   31.045	    0.000	    0.000	    0.200	    0.000	    0.000
  205.520	   11.000	   31.065	    0.000	    0.000	    0.200	    0.000	    0.000
  205.530	   11.000	   31.086	    0.000	    0.000	    0.200	    0.000	    0.000
  205.540	   11.000	   31.106	    0.000	    0.000	    0.200	    0.000	    0.000
  205.550	   11.000	   31.125	    0.000	    0.000	    0.200	    0.000	    0.000
  205.560	   11.000	   31.144	    0.000	    0.000	    0.200	    0.000	    0.000
  205.570	   11.000	   31.163	    0.000	    0.000	    0.200	    0.000	    0.000
  205.580	   11.000	   31.181	    0.000	    0.000	    0.200	    0.000	    0.000
  205.590	   11.000	   31.199	    0.000	    0.000	    0.200	    0.000	    0.000
  205.600	   11.000	   31.216	    0.000	    0.000	    0.200	    0.000	    0.000
  205.610	   11.000	   31.233	    0.000	    0.000	    0.200	    0.000	    0.000
  205.620	   11.000	   31.250	    0.000	    0.000	    0.200	    0.000	    0.000
  205.630	   11.000	   31.266	    0.000	    0.000	    0.200	    0.000	    0.000
  205.640	   11.000	   31.282	    0.000	    0.000	    0.200	    0.000	    0.000
  205.650	   11.000	   31.297	    0.000	    0.000	    0.200	    0.000	    0.000
  205.660	   11.000	   31.312	    0.000	    0.000	    0.200	    0.000	    0.000
  205.670	   11.000	   31.326	    0.000	    0.000	    0.200	    0.000	    0.000
  205.680	   11.000	   31.340	    0.000	    0.000	    0.200	    0.000	    0.000
  205.690	   11.000	   31.354	    0.000	    0.000	    0.200	    0.000	    0.000
  205.700	   11.000	   31.367	    0.000	    0.000	    0.200	    0.000	    0.000
  205.710	   11.000	   31.380	    0.000	    0.000	    0.200	    0.000	    0.000
  205.720	   11.000	   31.392	    0.000	    0.000	    0.200	    0.000	    0.000
  205.730	   11.000	   31.404	    0.000	    0.000	    0.200	    0.000	    0.000
  205.740	   11.000	   31.415	    0.000	    0.000	    0.200	    0.000	    0.000
  205.750	   11.000	   31.426	    0.000	    0.000	    0.200	    0.000	    0.000
  205.760	   11.000	   31.437	    0.000	    0.000	    0.200	    0.000	    0.000
  205.770	   11.000	   31.447	    0.000	    0.000	    0.200	    0.000	    0.000
  205.780	   11.000	   31.457	    0.000	    0.000	    0.200	    0.000	    0.000
  205.790	   11.000	   31.466	    0.000	    0.000	    0.200	    0.000	    0.000
  205.800	   11.000	   31.475	    0.000	    0.000	    0.200	    0.000	    0.000
  205.810	   11.000	   31.483	    0.000	    0.000	    0.200	    0.000	    0.000
  205.820	   11.000	   31.491	    0.000	    0.000	    0.200	    0.000	    0.000
  205.830	   11.000	   31.499	    0.000	    0.000	    0.200	    0.000	    0.000
  205.840	   11.000	   31.506	    0.000	    0.000	    0.200	    0.000	    0.000
  205.850	   11.000	   31.512	    0.000	    0.000	    0.200	    0.000	    0.000
  205.860	   11.000	   31.519	    0.000	    0.000	    0.200	    0.000	    0.000
  205.870	   11.000	   31.525	    0.000	    0.000	    0.200	    0.000	    0.000
  205.880	   11.000	   31.530	    0.000	    0.000	    0.200	    0.000	    0.000
  205.890	   11.000	   31.535	    0.000	    0.000	    0.200	    0.000	    0.000
  205.900	   11.000	   31.539	    0.000	    0.000	    0.200	    0.000	    0.000
  205.910	   11.000	   31.544	    0.000	    0.000	    0.200	    0.000	    0.000
  205.920	   11.000	   31.547	    0.000	    0.000	    0.200	    0.000	    0.000
  205.930	   11.000	   31.551	    0.000	    0.000	    0.200	    0.000	    0.000
  205.940	   11.000	   31.553	    0.000	    0.000	    0.200	    0.000	    0.000
  205.950	   11.000	   31.556	    0.000	    0.000	    0.200	    0.000	    0.000
  205.960	   11.000	   31.558	    0.000	    0.000	    0.200	    0.000	    0.000
  205.970	   11.000	   31.559	    0.000	    0.000	    0.200	    0.000	    0.000
  205.980	   11.000	   31.560	    0.000	    0.000	    0.200	    0.000	    0.000
  205.990	   11.000	   31.561	    0.000	    0.000	    0.200	    0.000	    0.000
  206.000	   11.000	   31.561	    0.000	    0.000	    0.200	    0.000	    0.000
  600.000	   11.000	   31.561	    0.000	    0.000	    0.200	    0.000	    0.000
