!OUTPUT FROM IECWIND v4.12 (19-Jun-2001) - IEC 61400-1 2nd EDITION.
 ! 50-YEAR EXTREME DIRECTION CHANGE IEC CONDITION
! for IEC Turbine Class 2 and IEC Turbulence Category B
! Rotor diameter = 108.0 m. 
! 100.0 m hub-height yields   21.0 m turbulence scale. 
!---------------------------------------------------------------
!Stats for this wind file:
!     The transient occurs over  6.0 seconds.
!     The maximum direction change is  -42.08  degrees.
!     This maximum occurs at  206.00 seconds.
!     The wind inflow inclination angle is  0.0  degrees to the horizontal.
!---------------------------------------------------------------
 ! Time	Wind	Wind	Vertical	Horiz.	Pwr.Law	Lin.Vert.	Gust
 !	Speed	Dir	Speed	Shear	Vert.Shr	Shear	Speed
 ! (sec)	(m/s)	(Deg)	(m/s)				(m/s)
    0.000	   11.000	    0.000	    0.000	    0.000	    0.200	    0.000	    0.000
  200.000	   11.000	    0.000	    0.000	    0.000	    0.200	    0.000	    0.000
  200.010	   11.000	    0.000	    0.000	    0.000	    0.200	    0.000	    0.000
  200.020	   11.000	   -0.001	    0.000	    0.000	    0.200	    0.000	    0.000
  200.030	   11.000	   -0.003	    0.000	    0.000	    0.200	    0.000	    0.000
  200.040	   11.000	   -0.005	    0.000	    0.000	    0.200	    0.000	    0.000
  200.050	   11.000	   -0.007	    0.000	    0.000	    0.200	    0.000	    0.000
  200.060	   11.000	   -0.010	    0.000	    0.000	    0.200	    0.000	    0.000
  200.070	   11.000	   -0.014	    0.000	    0.000	    0.200	    0.000	    0.000
  200.080	   11.000	   -0.018	    0.000	    0.000	    0.200	    0.000	    0.000
  200.090	   11.000	   -0.023	    0.000	    0.000	    0.200	    0.000	    0.000
  200.100	   11.000	   -0.029	    0.000	    0.000	    0.200	    0.000	    0.000
  200.110	   11.000	   -0.035	    0.000	    0.000	    0.200	    0.000	    0.000
  200.120	   11.000	   -0.042	    0.000	    0.000	    0.200	    0.000	    0.000
  200.130	   11.000	   -0.049	    0.000	    0.000	    0.200	    0.000	    0.000
  200.140	   11.000	   -0.057	    0.000	    0.000	    0.200	    0.000	    0.000
  200.150	   11.000	   -0.065	    0.000	    0.000	    0.200	    0.000	    0.000
  200.160	   11.000	   -0.074	    0.000	    0.000	    0.200	    0.000	    0.000
  200.170	   11.000	   -0.083	    0.000	    0.000	    0.200	    0.000	    0.000
  200.180	   11.000	   -0.093	    0.000	    0.000	    0.200	    0.000	    0.000
  200.190	   11.000	   -0.104	    0.000	    0.000	    0.200	    0.000	    0.000
  200.200	   11.000	   -0.115	    0.000	    0.000	    0.200	    0.000	    0.000
  200.210	   11.000	   -0.127	    0.000	    0.000	    0.200	    0.000	    0.000
  200.220	   11.000	   -0.139	    0.000	    0.000	    0.200	    0.000	    0.000
  200.230	   11.000	   -0.152	    0.000	    0.000	    0.200	    0.000	    0.000
  200.240	   11.000	   -0.166	    0.000	    0.000	    0.200	    0.000	    0.000
  200.250	   11.000	   -0.180	    0.000	    0.000	    0.200	    0.000	    0.000
  200.260	   11.000	   -0.195	    0.000	    0.000	    0.200	    0.000	    0.000
  200.270	   11.000	   -0.210	    0.000	    0.000	    0.200	    0.000	    0.000
  200.280	   11.000	   -0.226	    0.000	    0.000	    0.200	    0.000	    0.000
  200.290	   11.000	   -0.242	    0.000	    0.000	    0.200	    0.000	    0.000
  200.300	   11.000	   -0.259	    0.000	    0.000	    0.200	    0.000	    0.000
  200.310	   11.000	   -0.277	    0.000	    0.000	    0.200	    0.000	    0.000
  200.320	   11.000	   -0.295	    0.000	    0.000	    0.200	    0.000	    0.000
  200.330	   11.000	   -0.313	    0.000	    0.000	    0.200	    0.000	    0.000
  200.340	   11.000	   -0.333	    0.000	    0.000	    0.200	    0.000	    0.000
  200.350	   11.000	   -0.352	    0.000	    0.000	    0.200	    0.000	    0.000
  200.360	   11.000	   -0.373	    0.000	    0.000	    0.200	    0.000	    0.000
  200.370	   11.000	   -0.394	    0.000	    0.000	    0.200	    0.000	    0.000
  200.380	   11.000	   -0.415	    0.000	    0.000	    0.200	    0.000	    0.000
  200.390	   11.000	   -0.437	    0.000	    0.000	    0.200	    0.000	    0.000
  200.400	   11.000	   -0.460	    0.000	    0.000	    0.200	    0.000	    0.000
  200.410	   11.000	   -0.483	    0.000	    0.000	    0.200	    0.000	    0.000
  200.420	   11.000	   -0.507	    0.000	    0.000	    0.200	    0.000	    0.000
  200.430	   11.000	   -0.531	    0.000	    0.000	    0.200	    0.000	    0.000
  200.440	   11.000	   -0.556	    0.000	    0.000	    0.200	    0.000	    0.000
  200.450	   11.000	   -0.581	    0.000	    0.000	    0.200	    0.000	    0.000
  200.460	   11.000	   -0.607	    0.000	    0.000	    0.200	    0.000	    0.000
  200.470	   11.000	   -0.634	    0.000	    0.000	    0.200	    0.000	    0.000
  200.480	   11.000	   -0.661	    0.000	    0.000	    0.200	    0.000	    0.000
  200.490	   11.000	   -0.689	    0.000	    0.000	    0.200	    0.000	    0.000
  200.500	   11.000	   -0.717	    0.000	    0.000	    0.200	    0.000	    0.000
  200.510	   11.000	   -0.746	    0.000	    0.000	    0.200	    0.000	    0.000
  200.520	   11.000	   -0.775	    0.000	    0.000	    0.200	    0.000	    0.000
  200.530	   11.000	   -0.805	    0.000	    0.000	    0.200	    0.000	    0.000
  200.540	   11.000	   -0.835	    0.000	    0.000	    0.200	    0.000	    0.000
  200.550	   11.000	   -0.866	    0.000	    0.000	    0.200	    0.000	    0.000
  200.560	   11.000	   -0.898	    0.000	    0.000	    0.200	    0.000	    0.000
  200.570	   11.000	   -0.930	    0.000	    0.000	    0.200	    0.000	    0.000
  200.580	   11.000	   -0.963	    0.000	    0.000	    0.200	    0.000	    0.000
  200.590	   11.000	   -0.996	    0.000	    0.000	    0.200	    0.000	    0.000
  200.600	   11.000	   -1.030	    0.000	    0.000	    0.200	    0.000	    0.000
  200.610	   11.000	   -1.064	    0.000	    0.000	    0.200	    0.000	    0.000
  200.620	   11.000	   -1.099	    0.000	    0.000	    0.200	    0.000	    0.000
  200.630	   11.000	   -1.134	    0.000	    0.000	    0.200	    0.000	    0.000
  200.640	   11.000	   -1.170	    0.000	    0.000	    0.200	    0.000	    0.000
  200.650	   11.000	   -1.207	    0.000	    0.000	    0.200	    0.000	    0.000
  200.660	   11.000	   -1.244	    0.000	    0.000	    0.200	    0.000	    0.000
  200.670	   11.000	   -1.281	    0.000	    0.000	    0.200	    0.000	    0.000
  200.680	   11.000	   -1.320	    0.000	    0.000	    0.200	    0.000	    0.000
  200.690	   11.000	   -1.358	    0.000	    0.000	    0.200	    0.000	    0.000
  200.700	   11.000	   -1.398	    0.000	    0.000	    0.200	    0.000	    0.000
  200.710	   11.000	   -1.437	    0.000	    0.000	    0.200	    0.000	    0.000
  200.720	   11.000	   -1.478	    0.000	    0.000	    0.200	    0.000	    0.000
  200.730	   11.000	   -1.518	    0.000	    0.000	    0.200	    0.000	    0.000
  200.740	   11.000	   -1.560	    0.000	    0.000	    0.200	    0.000	    0.000
  200.750	   11.000	   -1.602	    0.000	    0.000	    0.200	    0.000	    0.000
  200.760	   11.000	   -1.644	    0.000	    0.000	    0.200	    0.000	    0.000
  200.770	   11.000	   -1.687	    0.000	    0.000	    0.200	    0.000	    0.000
  200.780	   11.000	   -1.730	    0.000	    0.000	    0.200	    0.000	    0.000
  200.790	   11.000	   -1.774	    0.000	    0.000	    0.200	    0.000	    0.000
  200.800	   11.000	   -1.819	    0.000	    0.000	    0.200	    0.000	    0.000
  200.810	   11.000	   -1.864	    0.000	    0.000	    0.200	    0.000	    0.000
  200.820	   11.000	   -1.910	    0.000	    0.000	    0.200	    0.000	    0.000
  200.830	   11.000	   -1.956	    0.000	    0.000	    0.200	    0.000	    0.000
  200.840	   11.000	   -2.002	    0.000	    0.000	    0.200	    0.000	    0.000
  200.850	   11.000	   -2.050	    0.000	    0.000	    0.200	    0.000	    0.000
  200.860	   11.000	   -2.097	    0.000	    0.000	    0.200	    0.000	    0.000
  200.870	   11.000	   -2.146	    0.000	    0.000	    0.200	    0.000	    0.000
  200.880	   11.000	   -2.194	    0.000	    0.000	    0.200	    0.000	    0.000
  200.890	   11.000	   -2.244	    0.000	    0.000	    0.200	    0.000	    0.000
  200.900	   11.000	   -2.293	    0.000	    0.000	    0.200	    0.000	    0.000
  200.910	   11.000	   -2.344	    0.000	    0.000	    0.200	    0.000	    0.000
  200.920	   11.000	   -2.394	    0.000	    0.000	    0.200	    0.000	    0.000
  200.930	   11.000	   -2.446	    0.000	    0.000	    0.200	    0.000	    0.000
  200.940	   11.000	   -2.497	    0.000	    0.000	    0.200	    0.000	    0.000
  200.950	   11.000	   -2.550	    0.000	    0.000	    0.200	    0.000	    0.000
  200.960	   11.000	   -2.603	    0.000	    0.000	    0.200	    0.000	    0.000
  200.970	   11.000	   -2.656	    0.000	    0.000	    0.200	    0.000	    0.000
  200.980	   11.000	   -2.710	    0.000	    0.000	    0.200	    0.000	    0.000
  200.990	   11.000	   -2.764	    0.000	    0.000	    0.200	    0.000	    0.000
  201.000	   11.000	   -2.819	    0.000	    0.000	    0.200	    0.000	    0.000
  201.010	   11.000	   -2.874	    0.000	    0.000	    0.200	    0.000	    0.000
  201.020	   11.000	   -2.930	    0.000	    0.000	    0.200	    0.000	    0.000
  201.030	   11.000	   -2.986	    0.000	    0.000	    0.200	    0.000	    0.000
  201.040	   11.000	   -3.043	    0.000	    0.000	    0.200	    0.000	    0.000
  201.050	   11.000	   -3.101	    0.000	    0.000	    0.200	    0.000	    0.000
  201.060	   11.000	   -3.158	    0.000	    0.000	    0.200	    0.000	    0.000
  201.070	   11.000	   -3.217	    0.000	    0.000	    0.200	    0.000	    0.000
  201.080	   11.000	   -3.275	    0.000	    0.000	    0.200	    0.000	    0.000
  201.090	   11.000	   -3.335	    0.000	    0.000	    0.200	    0.000	    0.000
  201.100	   11.000	   -3.395	    0.000	    0.000	    0.200	    0.000	    0.000
  201.110	   11.000	   -3.455	    0.000	    0.000	    0.200	    0.000	    0.000
  201.120	   11.000	   -3.515	    0.000	    0.000	    0.200	    0.000	    0.000
  201.130	   11.000	   -3.577	    0.000	    0.000	    0.200	    0.000	    0.000
  201.140	   11.000	   -3.638	    0.000	    0.000	    0.200	    0.000	    0.000
  201.150	   11.000	   -3.700	    0.000	    0.000	    0.200	    0.000	    0.000
  201.160	   11.000	   -3.763	    0.000	    0.000	    0.200	    0.000	    0.000
  201.170	   11.000	   -3.826	    0.000	    0.000	    0.200	    0.000	    0.000
  201.180	   11.000	   -3.890	    0.000	    0.000	    0.200	    0.000	    0.000
  201.190	   11.000	   -3.954	    0.000	    0.000	    0.200	    0.000	    0.000
  201.200	   11.000	   -4.018	    0.000	    0.000	    0.200	    0.000	    0.000
  201.210	   11.000	   -4.083	    0.000	    0.000	    0.200	    0.000	    0.000
  201.220	   11.000	   -4.149	    0.000	    0.000	    0.200	    0.000	    0.000
  201.230	   11.000	   -4.215	    0.000	    0.000	    0.200	    0.000	    0.000
  201.240	   11.000	   -4.281	    0.000	    0.000	    0.200	    0.000	    0.000
  201.250	   11.000	   -4.348	    0.000	    0.000	    0.200	    0.000	    0.000
  201.260	   11.000	   -4.415	    0.000	    0.000	    0.200	    0.000	    0.000
  201.270	   11.000	   -4.483	    0.000	    0.000	    0.200	    0.000	    0.000
  201.280	   11.000	   -4.551	    0.000	    0.000	    0.200	    0.000	    0.000
  201.290	   11.000	   -4.620	    0.000	    0.000	    0.200	    0.000	    0.000
  201.300	   11.000	   -4.689	    0.000	    0.000	    0.200	    0.000	    0.000
  201.310	   11.000	   -4.759	    0.000	    0.000	    0.200	    0.000	    0.000
  201.320	   11.000	   -4.829	    0.000	    0.000	    0.200	    0.000	    0.000
  201.330	   11.000	   -4.899	    0.000	    0.000	    0.200	    0.000	    0.000
  201.340	   11.000	   -4.970	    0.000	    0.000	    0.200	    0.000	    0.000
  201.350	   11.000	   -5.041	    0.000	    0.000	    0.200	    0.000	    0.000
  201.360	   11.000	   -5.113	    0.000	    0.000	    0.200	    0.000	    0.000
  201.370	   11.000	   -5.185	    0.000	    0.000	    0.200	    0.000	    0.000
  201.380	   11.000	   -5.258	    0.000	    0.000	    0.200	    0.000	    0.000
  201.390	   11.000	   -5.331	    0.000	    0.000	    0.200	    0.000	    0.000
  201.400	   11.000	   -5.404	    0.000	    0.000	    0.200	    0.000	    0.000
  201.410	   11.000	   -5.478	    0.000	    0.000	    0.200	    0.000	    0.000
  201.420	   11.000	   -5.553	    0.000	    0.000	    0.200	    0.000	    0.000
  201.430	   11.000	   -5.627	    0.000	    0.000	    0.200	    0.000	    0.000
  201.440	   11.000	   -5.703	    0.000	    0.000	    0.200	    0.000	    0.000
  201.450	   11.000	   -5.778	    0.000	    0.000	    0.200	    0.000	    0.000
  201.460	   11.000	   -5.854	    0.000	    0.000	    0.200	    0.000	    0.000
  201.470	   11.000	   -5.931	    0.000	    0.000	    0.200	    0.000	    0.000
  201.480	   11.000	   -6.008	    0.000	    0.000	    0.200	    0.000	    0.000
  201.490	   11.000	   -6.085	    0.000	    0.000	    0.200	    0.000	    0.000
  201.500	   11.000	   -6.163	    0.000	    0.000	    0.200	    0.000	    0.000
  201.510	   11.000	   -6.241	    0.000	    0.000	    0.200	    0.000	    0.000
  201.520	   11.000	   -6.319	    0.000	    0.000	    0.200	    0.000	    0.000
  201.530	   11.000	   -6.398	    0.000	    0.000	    0.200	    0.000	    0.000
  201.540	   11.000	   -6.477	    0.000	    0.000	    0.200	    0.000	    0.000
  201.550	   11.000	   -6.557	    0.000	    0.000	    0.200	    0.000	    0.000
  201.560	   11.000	   -6.637	    0.000	    0.000	    0.200	    0.000	    0.000
  201.570	   11.000	   -6.718	    0.000	    0.000	    0.200	    0.000	    0.000
  201.580	   11.000	   -6.799	    0.000	    0.000	    0.200	    0.000	    0.000
  201.590	   11.000	   -6.880	    0.000	    0.000	    0.200	    0.000	    0.000
  201.600	   11.000	   -6.962	    0.000	    0.000	    0.200	    0.000	    0.000
  201.610	   11.000	   -7.044	    0.000	    0.000	    0.200	    0.000	    0.000
  201.620	   11.000	   -7.126	    0.000	    0.000	    0.200	    0.000	    0.000
  201.630	   11.000	   -7.209	    0.000	    0.000	    0.200	    0.000	    0.000
  201.640	   11.000	   -7.292	    0.000	    0.000	    0.200	    0.000	    0.000
  201.650	   11.000	   -7.376	    0.000	    0.000	    0.200	    0.000	    0.000
  201.660	   11.000	   -7.460	    0.000	    0.000	    0.200	    0.000	    0.000
  201.670	   11.000	   -7.544	    0.000	    0.000	    0.200	    0.000	    0.000
  201.680	   11.000	   -7.629	    0.000	    0.000	    0.200	    0.000	    0.000
  201.690	   11.000	   -7.714	    0.000	    0.000	    0.200	    0.000	    0.000
  201.700	   11.000	   -7.799	    0.000	    0.000	    0.200	    0.000	    0.000
  201.710	   11.000	   -7.885	    0.000	    0.000	    0.200	    0.000	    0.000
  201.720	   11.000	   -7.971	    0.000	    0.000	    0.200	    0.000	    0.000
  201.730	   11.000	   -8.058	    0.000	    0.000	    0.200	    0.000	    0.000
  201.740	   11.000	   -8.145	    0.000	    0.000	    0.200	    0.000	    0.000
  201.750	   11.000	   -8.232	    0.000	    0.000	    0.200	    0.000	    0.000
  201.760	   11.000	   -8.319	    0.000	    0.000	    0.200	    0.000	    0.000
  201.770	   11.000	   -8.407	    0.000	    0.000	    0.200	    0.000	    0.000
  201.780	   11.000	   -8.496	    0.000	    0.000	    0.200	    0.000	    0.000
  201.790	   11.000	   -8.584	    0.000	    0.000	    0.200	    0.000	    0.000
  201.800	   11.000	   -8.673	    0.000	    0.000	    0.200	    0.000	    0.000
  201.810	   11.000	   -8.763	    0.000	    0.000	    0.200	    0.000	    0.000
  201.820	   11.000	   -8.852	    0.000	    0.000	    0.200	    0.000	    0.000
  201.830	   11.000	   -8.942	    0.000	    0.000	    0.200	    0.000	    0.000
  201.840	   11.000	   -9.032	    0.000	    0.000	    0.200	    0.000	    0.000
  201.850	   11.000	   -9.123	    0.000	    0.000	    0.200	    0.000	    0.000
  201.860	   11.000	   -9.214	    0.000	    0.000	    0.200	    0.000	    0.000
  201.870	   11.000	   -9.305	    0.000	    0.000	    0.200	    0.000	    0.000
  201.880	   11.000	   -9.397	    0.000	    0.000	    0.200	    0.000	    0.000
  201.890	   11.000	   -9.489	    0.000	    0.000	    0.200	    0.000	    0.000
  201.900	   11.000	   -9.581	    0.000	    0.000	    0.200	    0.000	    0.000
  201.910	   11.000	   -9.674	    0.000	    0.000	    0.200	    0.000	    0.000
  201.920	   11.000	   -9.767	    0.000	    0.000	    0.200	    0.000	    0.000
  201.930	   11.000	   -9.860	    0.000	    0.000	    0.200	    0.000	    0.000
  201.940	   11.000	   -9.953	    0.000	    0.000	    0.200	    0.000	    0.000
  201.950	   11.000	  -10.047	    0.000	    0.000	    0.200	    0.000	    0.000
  201.960	   11.000	  -10.141	    0.000	    0.000	    0.200	    0.000	    0.000
  201.970	   11.000	  -10.235	    0.000	    0.000	    0.200	    0.000	    0.000
  201.980	   11.000	  -10.330	    0.000	    0.000	    0.200	    0.000	    0.000
  201.990	   11.000	  -10.425	    0.000	    0.000	    0.200	    0.000	    0.000
  202.000	   11.000	  -10.520	    0.000	    0.000	    0.200	    0.000	    0.000
  202.010	   11.000	  -10.616	    0.000	    0.000	    0.200	    0.000	    0.000
  202.020	   11.000	  -10.712	    0.000	    0.000	    0.200	    0.000	    0.000
  202.030	   11.000	  -10.808	    0.000	    0.000	    0.200	    0.000	    0.000
  202.040	   11.000	  -10.904	    0.000	    0.000	    0.200	    0.000	    0.000
  202.050	   11.000	  -11.001	    0.000	    0.000	    0.200	    0.000	    0.000
  202.060	   11.000	  -11.098	    0.000	    0.000	    0.200	    0.000	    0.000
  202.070	   11.000	  -11.195	    0.000	    0.000	    0.200	    0.000	    0.000
  202.080	   11.000	  -11.293	    0.000	    0.000	    0.200	    0.000	    0.000
  202.090	   11.000	  -11.390	    0.000	    0.000	    0.200	    0.000	    0.000
  202.100	   11.000	  -11.488	    0.000	    0.000	    0.200	    0.000	    0.000
  202.110	   11.000	  -11.587	    0.000	    0.000	    0.200	    0.000	    0.000
  202.120	   11.000	  -11.685	    0.000	    0.000	    0.200	    0.000	    0.000
  202.130	   11.000	  -11.784	    0.000	    0.000	    0.200	    0.000	    0.000
  202.140	   11.000	  -11.883	    0.000	    0.000	    0.200	    0.000	    0.000
  202.150	   11.000	  -11.982	    0.000	    0.000	    0.200	    0.000	    0.000
  202.160	   11.000	  -12.082	    0.000	    0.000	    0.200	    0.000	    0.000
  202.170	   11.000	  -12.182	    0.000	    0.000	    0.200	    0.000	    0.000
  202.180	   11.000	  -12.282	    0.000	    0.000	    0.200	    0.000	    0.000
  202.190	   11.000	  -12.382	    0.000	    0.000	    0.200	    0.000	    0.000
  202.200	   11.000	  -12.483	    0.000	    0.000	    0.200	    0.000	    0.000
  202.210	   11.000	  -12.584	    0.000	    0.000	    0.200	    0.000	    0.000
  202.220	   11.000	  -12.684	    0.000	    0.000	    0.200	    0.000	    0.000
  202.230	   11.000	  -12.786	    0.000	    0.000	    0.200	    0.000	    0.000
  202.240	   11.000	  -12.887	    0.000	    0.000	    0.200	    0.000	    0.000
  202.250	   11.000	  -12.989	    0.000	    0.000	    0.200	    0.000	    0.000
  202.260	   11.000	  -13.091	    0.000	    0.000	    0.200	    0.000	    0.000
  202.270	   11.000	  -13.193	    0.000	    0.000	    0.200	    0.000	    0.000
  202.280	   11.000	  -13.295	    0.000	    0.000	    0.200	    0.000	    0.000
  202.290	   11.000	  -13.398	    0.000	    0.000	    0.200	    0.000	    0.000
  202.300	   11.000	  -13.500	    0.000	    0.000	    0.200	    0.000	    0.000
  202.310	   11.000	  -13.603	    0.000	    0.000	    0.200	    0.000	    0.000
  202.320	   11.000	  -13.707	    0.000	    0.000	    0.200	    0.000	    0.000
  202.330	   11.000	  -13.810	    0.000	    0.000	    0.200	    0.000	    0.000
  202.340	   11.000	  -13.913	    0.000	    0.000	    0.200	    0.000	    0.000
  202.350	   11.000	  -14.017	    0.000	    0.000	    0.200	    0.000	    0.000
  202.360	   11.000	  -14.121	    0.000	    0.000	    0.200	    0.000	    0.000
  202.370	   11.000	  -14.225	    0.000	    0.000	    0.200	    0.000	    0.000
  202.380	   11.000	  -14.330	    0.000	    0.000	    0.200	    0.000	    0.000
  202.390	   11.000	  -14.434	    0.000	    0.000	    0.200	    0.000	    0.000
  202.400	   11.000	  -14.539	    0.000	    0.000	    0.200	    0.000	    0.000
  202.410	   11.000	  -14.644	    0.000	    0.000	    0.200	    0.000	    0.000
  202.420	   11.000	  -14.749	    0.000	    0.000	    0.200	    0.000	    0.000
  202.430	   11.000	  -14.854	    0.000	    0.000	    0.200	    0.000	    0.000
  202.440	   11.000	  -14.959	    0.000	    0.000	    0.200	    0.000	    0.000
  202.450	   11.000	  -15.065	    0.000	    0.000	    0.200	    0.000	    0.000
  202.460	   11.000	  -15.171	    0.000	    0.000	    0.200	    0.000	    0.000
  202.470	   11.000	  -15.276	    0.000	    0.000	    0.200	    0.000	    0.000
  202.480	   11.000	  -15.382	    0.000	    0.000	    0.200	    0.000	    0.000
  202.490	   11.000	  -15.489	    0.000	    0.000	    0.200	    0.000	    0.000
  202.500	   11.000	  -15.595	    0.000	    0.000	    0.200	    0.000	    0.000
  202.510	   11.000	  -15.701	    0.000	    0.000	    0.200	    0.000	    0.000
  202.520	   11.000	  -15.808	    0.000	    0.000	    0.200	    0.000	    0.000
  202.530	   11.000	  -15.915	    0.000	    0.000	    0.200	    0.000	    0.000
  202.540	   11.000	  -16.022	    0.000	    0.000	    0.200	    0.000	    0.000
  202.550	   11.000	  -16.129	    0.000	    0.000	    0.200	    0.000	    0.000
  202.560	   11.000	  -16.236	    0.000	    0.000	    0.200	    0.000	    0.000
  202.570	   11.000	  -16.343	    0.000	    0.000	    0.200	    0.000	    0.000
  202.580	   11.000	  -16.451	    0.000	    0.000	    0.200	    0.000	    0.000
  202.590	   11.000	  -16.558	    0.000	    0.000	    0.200	    0.000	    0.000
  202.600	   11.000	  -16.666	    0.000	    0.000	    0.200	    0.000	    0.000
  202.610	   11.000	  -16.774	    0.000	    0.000	    0.200	    0.000	    0.000
  202.620	   11.000	  -16.882	    0.000	    0.000	    0.200	    0.000	    0.000
  202.630	   11.000	  -16.990	    0.000	    0.000	    0.200	    0.000	    0.000
  202.640	   11.000	  -17.098	    0.000	    0.000	    0.200	    0.000	    0.000
  202.650	   11.000	  -17.206	    0.000	    0.000	    0.200	    0.000	    0.000
  202.660	   11.000	  -17.315	    0.000	    0.000	    0.200	    0.000	    0.000
  202.670	   11.000	  -17.423	    0.000	    0.000	    0.200	    0.000	    0.000
  202.680	   11.000	  -17.532	    0.000	    0.000	    0.200	    0.000	    0.000
  202.690	   11.000	  -17.640	    0.000	    0.000	    0.200	    0.000	    0.000
  202.700	   11.000	  -17.749	    0.000	    0.000	    0.200	    0.000	    0.000
  202.710	   11.000	  -17.858	    0.000	    0.000	    0.200	    0.000	    0.000
  202.720	   11.000	  -17.967	    0.000	    0.000	    0.200	    0.000	    0.000
  202.730	   11.000	  -18.076	    0.000	    0.000	    0.200	    0.000	    0.000
  202.740	   11.000	  -18.185	    0.000	    0.000	    0.200	    0.000	    0.000
  202.750	   11.000	  -18.294	    0.000	    0.000	    0.200	    0.000	    0.000
  202.760	   11.000	  -18.404	    0.000	    0.000	    0.200	    0.000	    0.000
  202.770	   11.000	  -18.513	    0.000	    0.000	    0.200	    0.000	    0.000
  202.780	   11.000	  -18.622	    0.000	    0.000	    0.200	    0.000	    0.000
  202.790	   11.000	  -18.732	    0.000	    0.000	    0.200	    0.000	    0.000
  202.800	   11.000	  -18.841	    0.000	    0.000	    0.200	    0.000	    0.000
  202.810	   11.000	  -18.951	    0.000	    0.000	    0.200	    0.000	    0.000
  202.820	   11.000	  -19.061	    0.000	    0.000	    0.200	    0.000	    0.000
  202.830	   11.000	  -19.170	    0.000	    0.000	    0.200	    0.000	    0.000
  202.840	   11.000	  -19.280	    0.000	    0.000	    0.200	    0.000	    0.000
  202.850	   11.000	  -19.390	    0.000	    0.000	    0.200	    0.000	    0.000
  202.860	   11.000	  -19.500	    0.000	    0.000	    0.200	    0.000	    0.000
  202.870	   11.000	  -19.610	    0.000	    0.000	    0.200	    0.000	    0.000
  202.880	   11.000	  -19.720	    0.000	    0.000	    0.200	    0.000	    0.000
  202.890	   11.000	  -19.830	    0.000	    0.000	    0.200	    0.000	    0.000
  202.900	   11.000	  -19.939	    0.000	    0.000	    0.200	    0.000	    0.000
  202.910	   11.000	  -20.050	    0.000	    0.000	    0.200	    0.000	    0.000
  202.920	   11.000	  -20.160	    0.000	    0.000	    0.200	    0.000	    0.000
  202.930	   11.000	  -20.270	    0.000	    0.000	    0.200	    0.000	    0.000
  202.940	   11.000	  -20.380	    0.000	    0.000	    0.200	    0.000	    0.000
  202.950	   11.000	  -20.490	    0.000	    0.000	    0.200	    0.000	    0.000
  202.960	   11.000	  -20.600	    0.000	    0.000	    0.200	    0.000	    0.000
  202.970	   11.000	  -20.710	    0.000	    0.000	    0.200	    0.000	    0.000
  202.980	   11.000	  -20.820	    0.000	    0.000	    0.200	    0.000	    0.000
  202.990	   11.000	  -20.931	    0.000	    0.000	    0.200	    0.000	    0.000
  203.000	   11.000	  -21.041	    0.000	    0.000	    0.200	    0.000	    0.000
  203.010	   11.000	  -21.151	    0.000	    0.000	    0.200	    0.000	    0.000
  203.020	   11.000	  -21.261	    0.000	    0.000	    0.200	    0.000	    0.000
  203.030	   11.000	  -21.371	    0.000	    0.000	    0.200	    0.000	    0.000
  203.040	   11.000	  -21.481	    0.000	    0.000	    0.200	    0.000	    0.000
  203.050	   11.000	  -21.592	    0.000	    0.000	    0.200	    0.000	    0.000
  203.060	   11.000	  -21.702	    0.000	    0.000	    0.200	    0.000	    0.000
  203.070	   11.000	  -21.812	    0.000	    0.000	    0.200	    0.000	    0.000
  203.080	   11.000	  -21.922	    0.000	    0.000	    0.200	    0.000	    0.000
  203.090	   11.000	  -22.032	    0.000	    0.000	    0.200	    0.000	    0.000
  203.100	   11.000	  -22.142	    0.000	    0.000	    0.200	    0.000	    0.000
  203.110	   11.000	  -22.252	    0.000	    0.000	    0.200	    0.000	    0.000
  203.120	   11.000	  -22.362	    0.000	    0.000	    0.200	    0.000	    0.000
  203.130	   11.000	  -22.472	    0.000	    0.000	    0.200	    0.000	    0.000
  203.140	   11.000	  -22.582	    0.000	    0.000	    0.200	    0.000	    0.000
  203.150	   11.000	  -22.691	    0.000	    0.000	    0.200	    0.000	    0.000
  203.160	   11.000	  -22.801	    0.000	    0.000	    0.200	    0.000	    0.000
  203.170	   11.000	  -22.911	    0.000	    0.000	    0.200	    0.000	    0.000
  203.180	   11.000	  -23.021	    0.000	    0.000	    0.200	    0.000	    0.000
  203.190	   11.000	  -23.131	    0.000	    0.000	    0.200	    0.000	    0.000
  203.200	   11.000	  -23.240	    0.000	    0.000	    0.200	    0.000	    0.000
  203.210	   11.000	  -23.350	    0.000	    0.000	    0.200	    0.000	    0.000
  203.220	   11.000	  -23.459	    0.000	    0.000	    0.200	    0.000	    0.000
  203.230	   11.000	  -23.568	    0.000	    0.000	    0.200	    0.000	    0.000
  203.240	   11.000	  -23.678	    0.000	    0.000	    0.200	    0.000	    0.000
  203.250	   11.000	  -23.787	    0.000	    0.000	    0.200	    0.000	    0.000
  203.260	   11.000	  -23.896	    0.000	    0.000	    0.200	    0.000	    0.000
  203.270	   11.000	  -24.005	    0.000	    0.000	    0.200	    0.000	    0.000
  203.280	   11.000	  -24.114	    0.000	    0.000	    0.200	    0.000	    0.000
  203.290	   11.000	  -24.223	    0.000	    0.000	    0.200	    0.000	    0.000
  203.300	   11.000	  -24.332	    0.000	    0.000	    0.200	    0.000	    0.000
  203.310	   11.000	  -24.441	    0.000	    0.000	    0.200	    0.000	    0.000
  203.320	   11.000	  -24.550	    0.000	    0.000	    0.200	    0.000	    0.000
  203.330	   11.000	  -24.658	    0.000	    0.000	    0.200	    0.000	    0.000
  203.340	   11.000	  -24.767	    0.000	    0.000	    0.200	    0.000	    0.000
  203.350	   11.000	  -24.875	    0.000	    0.000	    0.200	    0.000	    0.000
  203.360	   11.000	  -24.983	    0.000	    0.000	    0.200	    0.000	    0.000
  203.370	   11.000	  -25.091	    0.000	    0.000	    0.200	    0.000	    0.000
  203.380	   11.000	  -25.200	    0.000	    0.000	    0.200	    0.000	    0.000
  203.390	   11.000	  -25.308	    0.000	    0.000	    0.200	    0.000	    0.000
  203.400	   11.000	  -25.415	    0.000	    0.000	    0.200	    0.000	    0.000
  203.410	   11.000	  -25.523	    0.000	    0.000	    0.200	    0.000	    0.000
  203.420	   11.000	  -25.631	    0.000	    0.000	    0.200	    0.000	    0.000
  203.430	   11.000	  -25.738	    0.000	    0.000	    0.200	    0.000	    0.000
  203.440	   11.000	  -25.845	    0.000	    0.000	    0.200	    0.000	    0.000
  203.450	   11.000	  -25.953	    0.000	    0.000	    0.200	    0.000	    0.000
  203.460	   11.000	  -26.060	    0.000	    0.000	    0.200	    0.000	    0.000
  203.470	   11.000	  -26.167	    0.000	    0.000	    0.200	    0.000	    0.000
  203.480	   11.000	  -26.273	    0.000	    0.000	    0.200	    0.000	    0.000
  203.490	   11.000	  -26.380	    0.000	    0.000	    0.200	    0.000	    0.000
  203.500	   11.000	  -26.486	    0.000	    0.000	    0.200	    0.000	    0.000
  203.510	   11.000	  -26.593	    0.000	    0.000	    0.200	    0.000	    0.000
  203.520	   11.000	  -26.699	    0.000	    0.000	    0.200	    0.000	    0.000
  203.530	   11.000	  -26.805	    0.000	    0.000	    0.200	    0.000	    0.000
  203.540	   11.000	  -26.911	    0.000	    0.000	    0.200	    0.000	    0.000
  203.550	   11.000	  -27.017	    0.000	    0.000	    0.200	    0.000	    0.000
  203.560	   11.000	  -27.122	    0.000	    0.000	    0.200	    0.000	    0.000
  203.570	   11.000	  -27.228	    0.000	    0.000	    0.200	    0.000	    0.000
  203.580	   11.000	  -27.333	    0.000	    0.000	    0.200	    0.000	    0.000
  203.590	   11.000	  -27.438	    0.000	    0.000	    0.200	    0.000	    0.000
  203.600	   11.000	  -27.543	    0.000	    0.000	    0.200	    0.000	    0.000
  203.610	   11.000	  -27.647	    0.000	    0.000	    0.200	    0.000	    0.000
  203.620	   11.000	  -27.752	    0.000	    0.000	    0.200	    0.000	    0.000
  203.630	   11.000	  -27.856	    0.000	    0.000	    0.200	    0.000	    0.000
  203.640	   11.000	  -27.960	    0.000	    0.000	    0.200	    0.000	    0.000
  203.650	   11.000	  -28.064	    0.000	    0.000	    0.200	    0.000	    0.000
  203.660	   11.000	  -28.168	    0.000	    0.000	    0.200	    0.000	    0.000
  203.670	   11.000	  -28.272	    0.000	    0.000	    0.200	    0.000	    0.000
  203.680	   11.000	  -28.375	    0.000	    0.000	    0.200	    0.000	    0.000
  203.690	   11.000	  -28.478	    0.000	    0.000	    0.200	    0.000	    0.000
  203.700	   11.000	  -28.581	    0.000	    0.000	    0.200	    0.000	    0.000
  203.710	   11.000	  -28.684	    0.000	    0.000	    0.200	    0.000	    0.000
  203.720	   11.000	  -28.786	    0.000	    0.000	    0.200	    0.000	    0.000
  203.730	   11.000	  -28.889	    0.000	    0.000	    0.200	    0.000	    0.000
  203.740	   11.000	  -28.991	    0.000	    0.000	    0.200	    0.000	    0.000
  203.750	   11.000	  -29.093	    0.000	    0.000	    0.200	    0.000	    0.000
  203.760	   11.000	  -29.194	    0.000	    0.000	    0.200	    0.000	    0.000
  203.770	   11.000	  -29.296	    0.000	    0.000	    0.200	    0.000	    0.000
  203.780	   11.000	  -29.397	    0.000	    0.000	    0.200	    0.000	    0.000
  203.790	   11.000	  -29.498	    0.000	    0.000	    0.200	    0.000	    0.000
  203.800	   11.000	  -29.599	    0.000	    0.000	    0.200	    0.000	    0.000
  203.810	   11.000	  -29.699	    0.000	    0.000	    0.200	    0.000	    0.000
  203.820	   11.000	  -29.800	    0.000	    0.000	    0.200	    0.000	    0.000
  203.830	   11.000	  -29.900	    0.000	    0.000	    0.200	    0.000	    0.000
  203.840	   11.000	  -29.999	    0.000	    0.000	    0.200	    0.000	    0.000
  203.850	   11.000	  -30.099	    0.000	    0.000	    0.200	    0.000	    0.000
  203.860	   11.000	  -30.198	    0.000	    0.000	    0.200	    0.000	    0.000
  203.870	   11.000	  -30.297	    0.000	    0.000	    0.200	    0.000	    0.000
  203.880	   11.000	  -30.396	    0.000	    0.000	    0.200	    0.000	    0.000
  203.890	   11.000	  -30.495	    0.000	    0.000	    0.200	    0.000	    0.000
  203.900	   11.000	  -30.593	    0.000	    0.000	    0.200	    0.000	    0.000
  203.910	   11.000	  -30.691	    0.000	    0.000	    0.200	    0.000	    0.000
  203.920	   11.000	  -30.789	    0.000	    0.000	    0.200	    0.000	    0.000
  203.930	   11.000	  -30.886	    0.000	    0.000	    0.200	    0.000	    0.000
  203.940	   11.000	  -30.984	    0.000	    0.000	    0.200	    0.000	    0.000
  203.950	   11.000	  -31.080	    0.000	    0.000	    0.200	    0.000	    0.000
  203.960	   11.000	  -31.177	    0.000	    0.000	    0.200	    0.000	    0.000
  203.970	   11.000	  -31.274	    0.000	    0.000	    0.200	    0.000	    0.000
  203.980	   11.000	  -31.370	    0.000	    0.000	    0.200	    0.000	    0.000
  203.990	   11.000	  -31.466	    0.000	    0.000	    0.200	    0.000	    0.000
  204.000	   11.000	  -31.561	    0.000	    0.000	    0.200	    0.000	    0.000
  204.010	   11.000	  -31.656	    0.000	    0.000	    0.200	    0.000	    0.000
  204.020	   11.000	  -31.751	    0.000	    0.000	    0.200	    0.000	    0.000
  204.030	   11.000	  -31.846	    0.000	    0.000	    0.200	    0.000	    0.000
  204.040	   11.000	  -31.940	    0.000	    0.000	    0.200	    0.000	    0.000
  204.050	   11.000	  -32.035	    0.000	    0.000	    0.200	    0.000	    0.000
  204.060	   11.000	  -32.128	    0.000	    0.000	    0.200	    0.000	    0.000
  204.070	   11.000	  -32.222	    0.000	    0.000	    0.200	    0.000	    0.000
  204.080	   11.000	  -32.315	    0.000	    0.000	    0.200	    0.000	    0.000
  204.090	   11.000	  -32.408	    0.000	    0.000	    0.200	    0.000	    0.000
  204.100	   11.000	  -32.500	    0.000	    0.000	    0.200	    0.000	    0.000
  204.110	   11.000	  -32.593	    0.000	    0.000	    0.200	    0.000	    0.000
  204.120	   11.000	  -32.684	    0.000	    0.000	    0.200	    0.000	    0.000
  204.130	   11.000	  -32.776	    0.000	    0.000	    0.200	    0.000	    0.000
  204.140	   11.000	  -32.867	    0.000	    0.000	    0.200	    0.000	    0.000
  204.150	   11.000	  -32.958	    0.000	    0.000	    0.200	    0.000	    0.000
  204.160	   11.000	  -33.049	    0.000	    0.000	    0.200	    0.000	    0.000
  204.170	   11.000	  -33.139	    0.000	    0.000	    0.200	    0.000	    0.000
  204.180	   11.000	  -33.229	    0.000	    0.000	    0.200	    0.000	    0.000
  204.190	   11.000	  -33.319	    0.000	    0.000	    0.200	    0.000	    0.000
  204.200	   11.000	  -33.408	    0.000	    0.000	    0.200	    0.000	    0.000
  204.210	   11.000	  -33.497	    0.000	    0.000	    0.200	    0.000	    0.000
  204.220	   11.000	  -33.586	    0.000	    0.000	    0.200	    0.000	    0.000
  204.230	   11.000	  -33.674	    0.000	    0.000	    0.200	    0.000	    0.000
  204.240	   11.000	  -33.762	    0.000	    0.000	    0.200	    0.000	    0.000
  204.250	   11.000	  -33.850	    0.000	    0.000	    0.200	    0.000	    0.000
  204.260	   11.000	  -33.937	    0.000	    0.000	    0.200	    0.000	    0.000
  204.270	   11.000	  -34.024	    0.000	    0.000	    0.200	    0.000	    0.000
  204.280	   11.000	  -34.110	    0.000	    0.000	    0.200	    0.000	    0.000
  204.290	   11.000	  -34.196	    0.000	    0.000	    0.200	    0.000	    0.000
  204.300	   11.000	  -34.282	    0.000	    0.000	    0.200	    0.000	    0.000
  204.310	   11.000	  -34.368	    0.000	    0.000	    0.200	    0.000	    0.000
  204.320	   11.000	  -34.453	    0.000	    0.000	    0.200	    0.000	    0.000
  204.330	   11.000	  -34.537	    0.000	    0.000	    0.200	    0.000	    0.000
  204.340	   11.000	  -34.622	    0.000	    0.000	    0.200	    0.000	    0.000
  204.350	   11.000	  -34.706	    0.000	    0.000	    0.200	    0.000	    0.000
  204.360	   11.000	  -34.789	    0.000	    0.000	    0.200	    0.000	    0.000
  204.370	   11.000	  -34.872	    0.000	    0.000	    0.200	    0.000	    0.000
  204.380	   11.000	  -34.955	    0.000	    0.000	    0.200	    0.000	    0.000
  204.390	   11.000	  -35.038	    0.000	    0.000	    0.200	    0.000	    0.000
  204.400	   11.000	  -35.120	    0.000	    0.000	    0.200	    0.000	    0.000
  204.410	   11.000	  -35.201	    0.000	    0.000	    0.200	    0.000	    0.000
  204.420	   11.000	  -35.283	    0.000	    0.000	    0.200	    0.000	    0.000
  204.430	   11.000	  -35.364	    0.000	    0.000	    0.200	    0.000	    0.000
  204.440	   11.000	  -35.444	    0.000	    0.000	    0.200	    0.000	    0.000
  204.450	   11.000	  -35.524	    0.000	    0.000	    0.200	    0.000	    0.000
  204.460	   11.000	  -35.604	    0.000	    0.000	    0.200	    0.000	    0.000
  204.470	   11.000	  -35.683	    0.000	    0.000	    0.200	    0.000	    0.000
  204.480	   11.000	  -35.762	    0.000	    0.000	    0.200	    0.000	    0.000
  204.490	   11.000	  -35.841	    0.000	    0.000	    0.200	    0.000	    0.000
  204.500	   11.000	  -35.919	    0.000	    0.000	    0.200	    0.000	    0.000
  204.510	   11.000	  -35.996	    0.000	    0.000	    0.200	    0.000	    0.000
  204.520	   11.000	  -36.074	    0.000	    0.000	    0.200	    0.000	    0.000
  204.530	   11.000	  -36.151	    0.000	    0.000	    0.200	    0.000	    0.000
  204.540	   11.000	  -36.227	    0.000	    0.000	    0.200	    0.000	    0.000
  204.550	   11.000	  -36.303	    0.000	    0.000	    0.200	    0.000	    0.000
  204.560	   11.000	  -36.379	    0.000	    0.000	    0.200	    0.000	    0.000
  204.570	   11.000	  -36.454	    0.000	    0.000	    0.200	    0.000	    0.000
  204.580	   11.000	  -36.529	    0.000	    0.000	    0.200	    0.000	    0.000
  204.590	   11.000	  -36.603	    0.000	    0.000	    0.200	    0.000	    0.000
  204.600	   11.000	  -36.677	    0.000	    0.000	    0.200	    0.000	    0.000
  204.610	   11.000	  -36.751	    0.000	    0.000	    0.200	    0.000	    0.000
  204.620	   11.000	  -36.824	    0.000	    0.000	    0.200	    0.000	    0.000
  204.630	   11.000	  -36.896	    0.000	    0.000	    0.200	    0.000	    0.000
  204.640	   11.000	  -36.968	    0.000	    0.000	    0.200	    0.000	    0.000
  204.650	   11.000	  -37.040	    0.000	    0.000	    0.200	    0.000	    0.000
  204.660	   11.000	  -37.112	    0.000	    0.000	    0.200	    0.000	    0.000
  204.670	   11.000	  -37.182	    0.000	    0.000	    0.200	    0.000	    0.000
  204.680	   11.000	  -37.253	    0.000	    0.000	    0.200	    0.000	    0.000
  204.690	   11.000	  -37.323	    0.000	    0.000	    0.200	    0.000	    0.000
  204.700	   11.000	  -37.392	    0.000	    0.000	    0.200	    0.000	    0.000
  204.710	   11.000	  -37.462	    0.000	    0.000	    0.200	    0.000	    0.000
  204.720	   11.000	  -37.530	    0.000	    0.000	    0.200	    0.000	    0.000
  204.730	   11.000	  -37.598	    0.000	    0.000	    0.200	    0.000	    0.000
  204.740	   11.000	  -37.666	    0.000	    0.000	    0.200	    0.000	    0.000
  204.750	   11.000	  -37.733	    0.000	    0.000	    0.200	    0.000	    0.000
  204.760	   11.000	  -37.800	    0.000	    0.000	    0.200	    0.000	    0.000
  204.770	   11.000	  -37.867	    0.000	    0.000	    0.200	    0.000	    0.000
  204.780	   11.000	  -37.933	    0.000	    0.000	    0.200	    0.000	    0.000
  204.790	   11.000	  -37.998	    0.000	    0.000	    0.200	    0.000	    0.000
  204.800	   11.000	  -38.063	    0.000	    0.000	    0.200	    0.000	    0.000
  204.810	   11.000	  -38.128	    0.000	    0.000	    0.200	    0.000	    0.000
  204.820	   11.000	  -38.192	    0.000	    0.000	    0.200	    0.000	    0.000
  204.830	   11.000	  -38.255	    0.000	    0.000	    0.200	    0.000	    0.000
  204.840	   11.000	  -38.318	    0.000	    0.000	    0.200	    0.000	    0.000
  204.850	   11.000	  -38.381	    0.000	    0.000	    0.200	    0.000	    0.000
  204.860	   11.000	  -38.443	    0.000	    0.000	    0.200	    0.000	    0.000
  204.870	   11.000	  -38.505	    0.000	    0.000	    0.200	    0.000	    0.000
  204.880	   11.000	  -38.566	    0.000	    0.000	    0.200	    0.000	    0.000
  204.890	   11.000	  -38.627	    0.000	    0.000	    0.200	    0.000	    0.000
  204.900	   11.000	  -38.687	    0.000	    0.000	    0.200	    0.000	    0.000
  204.910	   11.000	  -38.747	    0.000	    0.000	    0.200	    0.000	    0.000
  204.920	   11.000	  -38.806	    0.000	    0.000	    0.200	    0.000	    0.000
  204.930	   11.000	  -38.865	    0.000	    0.000	    0.200	    0.000	    0.000
  204.940	   11.000	  -38.923	    0.000	    0.000	    0.200	    0.000	    0.000
  204.950	   11.000	  -38.981	    0.000	    0.000	    0.200	    0.000	    0.000
  204.960	   11.000	  -39.038	    0.000	    0.000	    0.200	    0.000	    0.000
  204.970	   11.000	  -39.095	    0.000	    0.000	    0.200	    0.000	    0.000
  204.980	   11.000	  -39.151	    0.000	    0.000	    0.200	    0.000	    0.000
  204.990	   11.000	  -39.207	    0.000	    0.000	    0.200	    0.000	    0.000
  205.000	   11.000	  -39.263	    0.000	    0.000	    0.200	    0.000	    0.000
  205.010	   11.000	  -39.317	    0.000	    0.000	    0.200	    0.000	    0.000
  205.020	   11.000	  -39.372	    0.000	    0.000	    0.200	    0.000	    0.000
  205.030	   11.000	  -39.426	    0.000	    0.000	    0.200	    0.000	    0.000
  205.040	   11.000	  -39.479	    0.000	    0.000	    0.200	    0.000	    0.000
  205.050	   11.000	  -39.532	    0.000	    0.000	    0.200	    0.000	    0.000
  205.060	   11.000	  -39.584	    0.000	    0.000	    0.200	    0.000	    0.000
  205.070	   11.000	  -39.636	    0.000	    0.000	    0.200	    0.000	    0.000
  205.080	   11.000	  -39.687	    0.000	    0.000	    0.200	    0.000	    0.000
  205.090	   11.000	  -39.738	    0.000	    0.000	    0.200	    0.000	    0.000
  205.100	   11.000	  -39.788	    0.000	    0.000	    0.200	    0.000	    0.000
  205.110	   11.000	  -39.838	    0.000	    0.000	    0.200	    0.000	    0.000
  205.120	   11.000	  -39.887	    0.000	    0.000	    0.200	    0.000	    0.000
  205.130	   11.000	  -39.936	    0.000	    0.000	    0.200	    0.000	    0.000
  205.140	   11.000	  -39.984	    0.000	    0.000	    0.200	    0.000	    0.000
  205.150	   11.000	  -40.032	    0.000	    0.000	    0.200	    0.000	    0.000
  205.160	   11.000	  -40.079	    0.000	    0.000	    0.200	    0.000	    0.000
  205.170	   11.000	  -40.126	    0.000	    0.000	    0.200	    0.000	    0.000
  205.180	   11.000	  -40.172	    0.000	    0.000	    0.200	    0.000	    0.000
  205.190	   11.000	  -40.217	    0.000	    0.000	    0.200	    0.000	    0.000
  205.200	   11.000	  -40.262	    0.000	    0.000	    0.200	    0.000	    0.000
  205.210	   11.000	  -40.307	    0.000	    0.000	    0.200	    0.000	    0.000
  205.220	   11.000	  -40.351	    0.000	    0.000	    0.200	    0.000	    0.000
  205.230	   11.000	  -40.394	    0.000	    0.000	    0.200	    0.000	    0.000
  205.240	   11.000	  -40.437	    0.000	    0.000	    0.200	    0.000	    0.000
  205.250	   11.000	  -40.480	    0.000	    0.000	    0.200	    0.000	    0.000
  205.260	   11.000	  -40.522	    0.000	    0.000	    0.200	    0.000	    0.000
  205.270	   11.000	  -40.563	    0.000	    0.000	    0.200	    0.000	    0.000
  205.280	   11.000	  -40.604	    0.000	    0.000	    0.200	    0.000	    0.000
  205.290	   11.000	  -40.644	    0.000	    0.000	    0.200	    0.000	    0.000
  205.300	   11.000	  -40.684	    0.000	    0.000	    0.200	    0.000	    0.000
  205.310	   11.000	  -40.723	    0.000	    0.000	    0.200	    0.000	    0.000
  205.320	   11.000	  -40.762	    0.000	    0.000	    0.200	    0.000	    0.000
  205.330	   11.000	  -40.800	    0.000	    0.000	    0.200	    0.000	    0.000
  205.340	   11.000	  -40.838	    0.000	    0.000	    0.200	    0.000	    0.000
  205.350	   11.000	  -40.875	    0.000	    0.000	    0.200	    0.000	    0.000
  205.360	   11.000	  -40.911	    0.000	    0.000	    0.200	    0.000	    0.000
  205.370	   11.000	  -40.947	    0.000	    0.000	    0.200	    0.000	    0.000
  205.380	   11.000	  -40.983	    0.000	    0.000	    0.200	    0.000	    0.000
  205.390	   11.000	  -41.017	    0.000	    0.000	    0.200	    0.000	    0.000
  205.400	   11.000	  -41.052	    0.000	    0.000	    0.200	    0.000	    0.000
  205.410	   11.000	  -41.085	    0.000	    0.000	    0.200	    0.000	    0.000
  205.420	   11.000	  -41.119	    0.000	    0.000	    0.200	    0.000	    0.000
  205.430	   11.000	  -41.151	    0.000	    0.000	    0.200	    0.000	    0.000
  205.440	   11.000	  -41.183	    0.000	    0.000	    0.200	    0.000	    0.000
  205.450	   11.000	  -41.215	    0.000	    0.000	    0.200	    0.000	    0.000
  205.460	   11.000	  -41.246	    0.000	    0.000	    0.200	    0.000	    0.000
  205.470	   11.000	  -41.277	    0.000	    0.000	    0.200	    0.000	    0.000
  205.480	   11.000	  -41.306	    0.000	    0.000	    0.200	    0.000	    0.000
  205.490	   11.000	  -41.336	    0.000	    0.000	    0.200	    0.000	    0.000
  205.500	   11.000	  -41.365	    0.000	    0.000	    0.200	    0.000	    0.000
  205.510	   11.000	  -41.393	    0.000	    0.000	    0.200	    0.000	    0.000
  205.520	   11.000	  -41.420	    0.000	    0.000	    0.200	    0.000	    0.000
  205.530	   11.000	  -41.448	    0.000	    0.000	    0.200	    0.000	    0.000
  205.540	   11.000	  -41.474	    0.000	    0.000	    0.200	    0.000	    0.000
  205.550	   11.000	  -41.500	    0.000	    0.000	    0.200	    0.000	    0.000
  205.560	   11.000	  -41.526	    0.000	    0.000	    0.200	    0.000	    0.000
  205.570	   11.000	  -41.550	    0.000	    0.000	    0.200	    0.000	    0.000
  205.580	   11.000	  -41.575	    0.000	    0.000	    0.200	    0.000	    0.000
  205.590	   11.000	  -41.599	    0.000	    0.000	    0.200	    0.000	    0.000
  205.600	   11.000	  -41.622	    0.000	    0.000	    0.200	    0.000	    0.000
  205.610	   11.000	  -41.644	    0.000	    0.000	    0.200	    0.000	    0.000
  205.620	   11.000	  -41.666	    0.000	    0.000	    0.200	    0.000	    0.000
  205.630	   11.000	  -41.688	    0.000	    0.000	    0.200	    0.000	    0.000
  205.640	   11.000	  -41.709	    0.000	    0.000	    0.200	    0.000	    0.000
  205.650	   11.000	  -41.729	    0.000	    0.000	    0.200	    0.000	    0.000
  205.660	   11.000	  -41.749	    0.000	    0.000	    0.200	    0.000	    0.000
  205.670	   11.000	  -41.768	    0.000	    0.000	    0.200	    0.000	    0.000
  205.680	   11.000	  -41.787	    0.000	    0.000	    0.200	    0.000	    0.000
  205.690	   11.000	  -41.805	    0.000	    0.000	    0.200	    0.000	    0.000
  205.700	   11.000	  -41.822	    0.000	    0.000	    0.200	    0.000	    0.000
  205.710	   11.000	  -41.839	    0.000	    0.000	    0.200	    0.000	    0.000
  205.720	   11.000	  -41.856	    0.000	    0.000	    0.200	    0.000	    0.000
  205.730	   11.000	  -41.872	    0.000	    0.000	    0.200	    0.000	    0.000
  205.740	   11.000	  -41.887	    0.000	    0.000	    0.200	    0.000	    0.000
  205.750	   11.000	  -41.901	    0.000	    0.000	    0.200	    0.000	    0.000
  205.760	   11.000	  -41.916	    0.000	    0.000	    0.200	    0.000	    0.000
  205.770	   11.000	  -41.929	    0.000	    0.000	    0.200	    0.000	    0.000
  205.780	   11.000	  -41.942	    0.000	    0.000	    0.200	    0.000	    0.000
  205.790	   11.000	  -41.954	    0.000	    0.000	    0.200	    0.000	    0.000
  205.800	   11.000	  -41.966	    0.000	    0.000	    0.200	    0.000	    0.000
  205.810	   11.000	  -41.977	    0.000	    0.000	    0.200	    0.000	    0.000
  205.820	   11.000	  -41.988	    0.000	    0.000	    0.200	    0.000	    0.000
  205.830	   11.000	  -41.998	    0.000	    0.000	    0.200	    0.000	    0.000
  205.840	   11.000	  -42.008	    0.000	    0.000	    0.200	    0.000	    0.000
  205.850	   11.000	  -42.017	    0.000	    0.000	    0.200	    0.000	    0.000
  205.860	   11.000	  -42.025	    0.000	    0.000	    0.200	    0.000	    0.000
  205.870	   11.000	  -42.033	    0.000	    0.000	    0.200	    0.000	    0.000
  205.880	   11.000	  -42.040	    0.000	    0.000	    0.200	    0.000	    0.000
  205.890	   11.000	  -42.047	    0.000	    0.000	    0.200	    0.000	    0.000
  205.900	   11.000	  -42.053	    0.000	    0.000	    0.200	    0.000	    0.000
  205.910	   11.000	  -42.058	    0.000	    0.000	    0.200	    0.000	    0.000
  205.920	   11.000	  -42.063	    0.000	    0.000	    0.200	    0.000	    0.000
  205.930	   11.000	  -42.067	    0.000	    0.000	    0.200	    0.000	    0.000
  205.940	   11.000	  -42.071	    0.000	    0.000	    0.200	    0.000	    0.000
  205.950	   11.000	  -42.074	    0.000	    0.000	    0.200	    0.000	    0.000
  205.960	   11.000	  -42.077	    0.000	    0.000	    0.200	    0.000	    0.000
  205.970	   11.000	  -42.079	    0.000	    0.000	    0.200	    0.000	    0.000
  205.980	   11.000	  -42.080	    0.000	    0.000	    0.200	    0.000	    0.000
  205.990	   11.000	  -42.081	    0.000	    0.000	    0.200	    0.000	    0.000
  206.000	   11.000	  -42.082	    0.000	    0.000	    0.200	    0.000	    0.000
  600.000	   11.000	  -42.082	    0.000	    0.000	    0.200	    0.000	    0.000
