!OUTPUT FROM IECWIND v4.12 (19-Jun-2001) - IEC 61400-1 2nd EDITION.
 ! EXTREME HORIZONTAL WIND SHEAR IEC CONDITION
! for IEC Turbine Class 2 and IEC Turbulence Category B
! Rotor diameter = 108.0 m. 
! 100.0 m hub-height yields   21.0 m turbulence scale. 
!---------------------------------------------------------------
!Stats for this wind file:
!     The transient occurs over 12.0 seconds.
!     The maximum linear horizontal wind shear is  1.127 .
!     This maximum occurs at 206.00  seconds.
!     The wind inflow inclination angle is  0.0  degrees to the horizontal.
!---------------------------------------------------------------
 ! Time	Wind	Wind	Vertical	Horiz.	Pwr.Law	Lin.Vert.	Gust
 !	Speed	Dir	Speed	Shear	Vert.Shr	Shear	Speed
 ! (sec)	(m/s)	(Deg)	(m/s)				(m/s)
    0.000	   11.000	    0.000	    0.000	    0.000	    0.200	    0.000	    0.000
  200.000	   11.000	    0.000	    0.000	    0.000	    0.200	    0.000	    0.000
  200.010	   11.000	    0.000	    0.000	    0.000	    0.200	    0.000	    0.000
  200.020	   11.000	    0.000	    0.000	    0.000	    0.200	    0.000	    0.000
  200.030	   11.000	    0.000	    0.000	    0.000	    0.200	    0.000	    0.000
  200.040	   11.000	    0.000	    0.000	    0.000	    0.200	    0.000	    0.000
  200.050	   11.000	    0.000	    0.000	    0.000	    0.200	    0.000	    0.000
  200.060	   11.000	    0.000	    0.000	    0.000	    0.200	    0.000	    0.000
  200.070	   11.000	    0.000	    0.000	    0.000	    0.200	    0.000	    0.000
  200.080	   11.000	    0.000	    0.000	    0.000	    0.200	    0.000	    0.000
  200.090	   11.000	    0.000	    0.000	    0.001	    0.200	    0.000	    0.000
  200.100	   11.000	    0.000	    0.000	    0.001	    0.200	    0.000	    0.000
  200.110	   11.000	    0.000	    0.000	    0.001	    0.200	    0.000	    0.000
  200.120	   11.000	    0.000	    0.000	    0.001	    0.200	    0.000	    0.000
  200.130	   11.000	    0.000	    0.000	    0.001	    0.200	    0.000	    0.000
  200.140	   11.000	    0.000	    0.000	    0.002	    0.200	    0.000	    0.000
  200.150	   11.000	    0.000	    0.000	    0.002	    0.200	    0.000	    0.000
  200.160	   11.000	    0.000	    0.000	    0.002	    0.200	    0.000	    0.000
  200.170	   11.000	    0.000	    0.000	    0.002	    0.200	    0.000	    0.000
  200.180	   11.000	    0.000	    0.000	    0.003	    0.200	    0.000	    0.000
  200.190	   11.000	    0.000	    0.000	    0.003	    0.200	    0.000	    0.000
  200.200	   11.000	    0.000	    0.000	    0.003	    0.200	    0.000	    0.000
  200.210	   11.000	    0.000	    0.000	    0.003	    0.200	    0.000	    0.000
  200.220	   11.000	    0.000	    0.000	    0.004	    0.200	    0.000	    0.000
  200.230	   11.000	    0.000	    0.000	    0.004	    0.200	    0.000	    0.000
  200.240	   11.000	    0.000	    0.000	    0.004	    0.200	    0.000	    0.000
  200.250	   11.000	    0.000	    0.000	    0.005	    0.200	    0.000	    0.000
  200.260	   11.000	    0.000	    0.000	    0.005	    0.200	    0.000	    0.000
  200.270	   11.000	    0.000	    0.000	    0.006	    0.200	    0.000	    0.000
  200.280	   11.000	    0.000	    0.000	    0.006	    0.200	    0.000	    0.000
  200.290	   11.000	    0.000	    0.000	    0.006	    0.200	    0.000	    0.000
  200.300	   11.000	    0.000	    0.000	    0.007	    0.200	    0.000	    0.000
  200.310	   11.000	    0.000	    0.000	    0.007	    0.200	    0.000	    0.000
  200.320	   11.000	    0.000	    0.000	    0.008	    0.200	    0.000	    0.000
  200.330	   11.000	    0.000	    0.000	    0.008	    0.200	    0.000	    0.000
  200.340	   11.000	    0.000	    0.000	    0.009	    0.200	    0.000	    0.000
  200.350	   11.000	    0.000	    0.000	    0.009	    0.200	    0.000	    0.000
  200.360	   11.000	    0.000	    0.000	    0.010	    0.200	    0.000	    0.000
  200.370	   11.000	    0.000	    0.000	    0.011	    0.200	    0.000	    0.000
  200.380	   11.000	    0.000	    0.000	    0.011	    0.200	    0.000	    0.000
  200.390	   11.000	    0.000	    0.000	    0.012	    0.200	    0.000	    0.000
  200.400	   11.000	    0.000	    0.000	    0.012	    0.200	    0.000	    0.000
  200.410	   11.000	    0.000	    0.000	    0.013	    0.200	    0.000	    0.000
  200.420	   11.000	    0.000	    0.000	    0.014	    0.200	    0.000	    0.000
  200.430	   11.000	    0.000	    0.000	    0.014	    0.200	    0.000	    0.000
  200.440	   11.000	    0.000	    0.000	    0.015	    0.200	    0.000	    0.000
  200.450	   11.000	    0.000	    0.000	    0.016	    0.200	    0.000	    0.000
  200.460	   11.000	    0.000	    0.000	    0.016	    0.200	    0.000	    0.000
  200.470	   11.000	    0.000	    0.000	    0.017	    0.200	    0.000	    0.000
  200.480	   11.000	    0.000	    0.000	    0.018	    0.200	    0.000	    0.000
  200.490	   11.000	    0.000	    0.000	    0.018	    0.200	    0.000	    0.000
  200.500	   11.000	    0.000	    0.000	    0.019	    0.200	    0.000	    0.000
  200.510	   11.000	    0.000	    0.000	    0.020	    0.200	    0.000	    0.000
  200.520	   11.000	    0.000	    0.000	    0.021	    0.200	    0.000	    0.000
  200.530	   11.000	    0.000	    0.000	    0.022	    0.200	    0.000	    0.000
  200.540	   11.000	    0.000	    0.000	    0.022	    0.200	    0.000	    0.000
  200.550	   11.000	    0.000	    0.000	    0.023	    0.200	    0.000	    0.000
  200.560	   11.000	    0.000	    0.000	    0.024	    0.200	    0.000	    0.000
  200.570	   11.000	    0.000	    0.000	    0.025	    0.200	    0.000	    0.000
  200.580	   11.000	    0.000	    0.000	    0.026	    0.200	    0.000	    0.000
  200.590	   11.000	    0.000	    0.000	    0.027	    0.200	    0.000	    0.000
  200.600	   11.000	    0.000	    0.000	    0.028	    0.200	    0.000	    0.000
  200.610	   11.000	    0.000	    0.000	    0.029	    0.200	    0.000	    0.000
  200.620	   11.000	    0.000	    0.000	    0.029	    0.200	    0.000	    0.000
  200.630	   11.000	    0.000	    0.000	    0.030	    0.200	    0.000	    0.000
  200.640	   11.000	    0.000	    0.000	    0.031	    0.200	    0.000	    0.000
  200.650	   11.000	    0.000	    0.000	    0.032	    0.200	    0.000	    0.000
  200.660	   11.000	    0.000	    0.000	    0.033	    0.200	    0.000	    0.000
  200.670	   11.000	    0.000	    0.000	    0.034	    0.200	    0.000	    0.000
  200.680	   11.000	    0.000	    0.000	    0.035	    0.200	    0.000	    0.000
  200.690	   11.000	    0.000	    0.000	    0.036	    0.200	    0.000	    0.000
  200.700	   11.000	    0.000	    0.000	    0.037	    0.200	    0.000	    0.000
  200.710	   11.000	    0.000	    0.000	    0.039	    0.200	    0.000	    0.000
  200.720	   11.000	    0.000	    0.000	    0.040	    0.200	    0.000	    0.000
  200.730	   11.000	    0.000	    0.000	    0.041	    0.200	    0.000	    0.000
  200.740	   11.000	    0.000	    0.000	    0.042	    0.200	    0.000	    0.000
  200.750	   11.000	    0.000	    0.000	    0.043	    0.200	    0.000	    0.000
  200.760	   11.000	    0.000	    0.000	    0.044	    0.200	    0.000	    0.000
  200.770	   11.000	    0.000	    0.000	    0.045	    0.200	    0.000	    0.000
  200.780	   11.000	    0.000	    0.000	    0.046	    0.200	    0.000	    0.000
  200.790	   11.000	    0.000	    0.000	    0.048	    0.200	    0.000	    0.000
  200.800	   11.000	    0.000	    0.000	    0.049	    0.200	    0.000	    0.000
  200.810	   11.000	    0.000	    0.000	    0.050	    0.200	    0.000	    0.000
  200.820	   11.000	    0.000	    0.000	    0.051	    0.200	    0.000	    0.000
  200.830	   11.000	    0.000	    0.000	    0.052	    0.200	    0.000	    0.000
  200.840	   11.000	    0.000	    0.000	    0.054	    0.200	    0.000	    0.000
  200.850	   11.000	    0.000	    0.000	    0.055	    0.200	    0.000	    0.000
  200.860	   11.000	    0.000	    0.000	    0.056	    0.200	    0.000	    0.000
  200.870	   11.000	    0.000	    0.000	    0.057	    0.200	    0.000	    0.000
  200.880	   11.000	    0.000	    0.000	    0.059	    0.200	    0.000	    0.000
  200.890	   11.000	    0.000	    0.000	    0.060	    0.200	    0.000	    0.000
  200.900	   11.000	    0.000	    0.000	    0.061	    0.200	    0.000	    0.000
  200.910	   11.000	    0.000	    0.000	    0.063	    0.200	    0.000	    0.000
  200.920	   11.000	    0.000	    0.000	    0.064	    0.200	    0.000	    0.000
  200.930	   11.000	    0.000	    0.000	    0.066	    0.200	    0.000	    0.000
  200.940	   11.000	    0.000	    0.000	    0.067	    0.200	    0.000	    0.000
  200.950	   11.000	    0.000	    0.000	    0.068	    0.200	    0.000	    0.000
  200.960	   11.000	    0.000	    0.000	    0.070	    0.200	    0.000	    0.000
  200.970	   11.000	    0.000	    0.000	    0.071	    0.200	    0.000	    0.000
  200.980	   11.000	    0.000	    0.000	    0.073	    0.200	    0.000	    0.000
  200.990	   11.000	    0.000	    0.000	    0.074	    0.200	    0.000	    0.000
  201.000	   11.000	    0.000	    0.000	    0.076	    0.200	    0.000	    0.000
  201.010	   11.000	    0.000	    0.000	    0.077	    0.200	    0.000	    0.000
  201.020	   11.000	    0.000	    0.000	    0.079	    0.200	    0.000	    0.000
  201.030	   11.000	    0.000	    0.000	    0.080	    0.200	    0.000	    0.000
  201.040	   11.000	    0.000	    0.000	    0.082	    0.200	    0.000	    0.000
  201.050	   11.000	    0.000	    0.000	    0.083	    0.200	    0.000	    0.000
  201.060	   11.000	    0.000	    0.000	    0.085	    0.200	    0.000	    0.000
  201.070	   11.000	    0.000	    0.000	    0.086	    0.200	    0.000	    0.000
  201.080	   11.000	    0.000	    0.000	    0.088	    0.200	    0.000	    0.000
  201.090	   11.000	    0.000	    0.000	    0.089	    0.200	    0.000	    0.000
  201.100	   11.000	    0.000	    0.000	    0.091	    0.200	    0.000	    0.000
  201.110	   11.000	    0.000	    0.000	    0.093	    0.200	    0.000	    0.000
  201.120	   11.000	    0.000	    0.000	    0.094	    0.200	    0.000	    0.000
  201.130	   11.000	    0.000	    0.000	    0.096	    0.200	    0.000	    0.000
  201.140	   11.000	    0.000	    0.000	    0.097	    0.200	    0.000	    0.000
  201.150	   11.000	    0.000	    0.000	    0.099	    0.200	    0.000	    0.000
  201.160	   11.000	    0.000	    0.000	    0.101	    0.200	    0.000	    0.000
  201.170	   11.000	    0.000	    0.000	    0.103	    0.200	    0.000	    0.000
  201.180	   11.000	    0.000	    0.000	    0.104	    0.200	    0.000	    0.000
  201.190	   11.000	    0.000	    0.000	    0.106	    0.200	    0.000	    0.000
  201.200	   11.000	    0.000	    0.000	    0.108	    0.200	    0.000	    0.000
  201.210	   11.000	    0.000	    0.000	    0.109	    0.200	    0.000	    0.000
  201.220	   11.000	    0.000	    0.000	    0.111	    0.200	    0.000	    0.000
  201.230	   11.000	    0.000	    0.000	    0.113	    0.200	    0.000	    0.000
  201.240	   11.000	    0.000	    0.000	    0.115	    0.200	    0.000	    0.000
  201.250	   11.000	    0.000	    0.000	    0.116	    0.200	    0.000	    0.000
  201.260	   11.000	    0.000	    0.000	    0.118	    0.200	    0.000	    0.000
  201.270	   11.000	    0.000	    0.000	    0.120	    0.200	    0.000	    0.000
  201.280	   11.000	    0.000	    0.000	    0.122	    0.200	    0.000	    0.000
  201.290	   11.000	    0.000	    0.000	    0.124	    0.200	    0.000	    0.000
  201.300	   11.000	    0.000	    0.000	    0.126	    0.200	    0.000	    0.000
  201.310	   11.000	    0.000	    0.000	    0.127	    0.200	    0.000	    0.000
  201.320	   11.000	    0.000	    0.000	    0.129	    0.200	    0.000	    0.000
  201.330	   11.000	    0.000	    0.000	    0.131	    0.200	    0.000	    0.000
  201.340	   11.000	    0.000	    0.000	    0.133	    0.200	    0.000	    0.000
  201.350	   11.000	    0.000	    0.000	    0.135	    0.200	    0.000	    0.000
  201.360	   11.000	    0.000	    0.000	    0.137	    0.200	    0.000	    0.000
  201.370	   11.000	    0.000	    0.000	    0.139	    0.200	    0.000	    0.000
  201.380	   11.000	    0.000	    0.000	    0.141	    0.200	    0.000	    0.000
  201.390	   11.000	    0.000	    0.000	    0.143	    0.200	    0.000	    0.000
  201.400	   11.000	    0.000	    0.000	    0.145	    0.200	    0.000	    0.000
  201.410	   11.000	    0.000	    0.000	    0.147	    0.200	    0.000	    0.000
  201.420	   11.000	    0.000	    0.000	    0.149	    0.200	    0.000	    0.000
  201.430	   11.000	    0.000	    0.000	    0.151	    0.200	    0.000	    0.000
  201.440	   11.000	    0.000	    0.000	    0.153	    0.200	    0.000	    0.000
  201.450	   11.000	    0.000	    0.000	    0.155	    0.200	    0.000	    0.000
  201.460	   11.000	    0.000	    0.000	    0.157	    0.200	    0.000	    0.000
  201.470	   11.000	    0.000	    0.000	    0.159	    0.200	    0.000	    0.000
  201.480	   11.000	    0.000	    0.000	    0.161	    0.200	    0.000	    0.000
  201.490	   11.000	    0.000	    0.000	    0.163	    0.200	    0.000	    0.000
  201.500	   11.000	    0.000	    0.000	    0.165	    0.200	    0.000	    0.000
  201.510	   11.000	    0.000	    0.000	    0.167	    0.200	    0.000	    0.000
  201.520	   11.000	    0.000	    0.000	    0.169	    0.200	    0.000	    0.000
  201.530	   11.000	    0.000	    0.000	    0.171	    0.200	    0.000	    0.000
  201.540	   11.000	    0.000	    0.000	    0.174	    0.200	    0.000	    0.000
  201.550	   11.000	    0.000	    0.000	    0.176	    0.200	    0.000	    0.000
  201.560	   11.000	    0.000	    0.000	    0.178	    0.200	    0.000	    0.000
  201.570	   11.000	    0.000	    0.000	    0.180	    0.200	    0.000	    0.000
  201.580	   11.000	    0.000	    0.000	    0.182	    0.200	    0.000	    0.000
  201.590	   11.000	    0.000	    0.000	    0.184	    0.200	    0.000	    0.000
  201.600	   11.000	    0.000	    0.000	    0.187	    0.200	    0.000	    0.000
  201.610	   11.000	    0.000	    0.000	    0.189	    0.200	    0.000	    0.000
  201.620	   11.000	    0.000	    0.000	    0.191	    0.200	    0.000	    0.000
  201.630	   11.000	    0.000	    0.000	    0.193	    0.200	    0.000	    0.000
  201.640	   11.000	    0.000	    0.000	    0.195	    0.200	    0.000	    0.000
  201.650	   11.000	    0.000	    0.000	    0.198	    0.200	    0.000	    0.000
  201.660	   11.000	    0.000	    0.000	    0.200	    0.200	    0.000	    0.000
  201.670	   11.000	    0.000	    0.000	    0.202	    0.200	    0.000	    0.000
  201.680	   11.000	    0.000	    0.000	    0.204	    0.200	    0.000	    0.000
  201.690	   11.000	    0.000	    0.000	    0.207	    0.200	    0.000	    0.000
  201.700	   11.000	    0.000	    0.000	    0.209	    0.200	    0.000	    0.000
  201.710	   11.000	    0.000	    0.000	    0.211	    0.200	    0.000	    0.000
  201.720	   11.000	    0.000	    0.000	    0.214	    0.200	    0.000	    0.000
  201.730	   11.000	    0.000	    0.000	    0.216	    0.200	    0.000	    0.000
  201.740	   11.000	    0.000	    0.000	    0.218	    0.200	    0.000	    0.000
  201.750	   11.000	    0.000	    0.000	    0.221	    0.200	    0.000	    0.000
  201.760	   11.000	    0.000	    0.000	    0.223	    0.200	    0.000	    0.000
  201.770	   11.000	    0.000	    0.000	    0.225	    0.200	    0.000	    0.000
  201.780	   11.000	    0.000	    0.000	    0.228	    0.200	    0.000	    0.000
  201.790	   11.000	    0.000	    0.000	    0.230	    0.200	    0.000	    0.000
  201.800	   11.000	    0.000	    0.000	    0.232	    0.200	    0.000	    0.000
  201.810	   11.000	    0.000	    0.000	    0.235	    0.200	    0.000	    0.000
  201.820	   11.000	    0.000	    0.000	    0.237	    0.200	    0.000	    0.000
  201.830	   11.000	    0.000	    0.000	    0.240	    0.200	    0.000	    0.000
  201.840	   11.000	    0.000	    0.000	    0.242	    0.200	    0.000	    0.000
  201.850	   11.000	    0.000	    0.000	    0.244	    0.200	    0.000	    0.000
  201.860	   11.000	    0.000	    0.000	    0.247	    0.200	    0.000	    0.000
  201.870	   11.000	    0.000	    0.000	    0.249	    0.200	    0.000	    0.000
  201.880	   11.000	    0.000	    0.000	    0.252	    0.200	    0.000	    0.000
  201.890	   11.000	    0.000	    0.000	    0.254	    0.200	    0.000	    0.000
  201.900	   11.000	    0.000	    0.000	    0.257	    0.200	    0.000	    0.000
  201.910	   11.000	    0.000	    0.000	    0.259	    0.200	    0.000	    0.000
  201.920	   11.000	    0.000	    0.000	    0.262	    0.200	    0.000	    0.000
  201.930	   11.000	    0.000	    0.000	    0.264	    0.200	    0.000	    0.000
  201.940	   11.000	    0.000	    0.000	    0.267	    0.200	    0.000	    0.000
  201.950	   11.000	    0.000	    0.000	    0.269	    0.200	    0.000	    0.000
  201.960	   11.000	    0.000	    0.000	    0.272	    0.200	    0.000	    0.000
  201.970	   11.000	    0.000	    0.000	    0.274	    0.200	    0.000	    0.000
  201.980	   11.000	    0.000	    0.000	    0.277	    0.200	    0.000	    0.000
  201.990	   11.000	    0.000	    0.000	    0.279	    0.200	    0.000	    0.000
  202.000	   11.000	    0.000	    0.000	    0.282	    0.200	    0.000	    0.000
  202.010	   11.000	    0.000	    0.000	    0.284	    0.200	    0.000	    0.000
  202.020	   11.000	    0.000	    0.000	    0.287	    0.200	    0.000	    0.000
  202.030	   11.000	    0.000	    0.000	    0.290	    0.200	    0.000	    0.000
  202.040	   11.000	    0.000	    0.000	    0.292	    0.200	    0.000	    0.000
  202.050	   11.000	    0.000	    0.000	    0.295	    0.200	    0.000	    0.000
  202.060	   11.000	    0.000	    0.000	    0.297	    0.200	    0.000	    0.000
  202.070	   11.000	    0.000	    0.000	    0.300	    0.200	    0.000	    0.000
  202.080	   11.000	    0.000	    0.000	    0.303	    0.200	    0.000	    0.000
  202.090	   11.000	    0.000	    0.000	    0.305	    0.200	    0.000	    0.000
  202.100	   11.000	    0.000	    0.000	    0.308	    0.200	    0.000	    0.000
  202.110	   11.000	    0.000	    0.000	    0.310	    0.200	    0.000	    0.000
  202.120	   11.000	    0.000	    0.000	    0.313	    0.200	    0.000	    0.000
  202.130	   11.000	    0.000	    0.000	    0.316	    0.200	    0.000	    0.000
  202.140	   11.000	    0.000	    0.000	    0.318	    0.200	    0.000	    0.000
  202.150	   11.000	    0.000	    0.000	    0.321	    0.200	    0.000	    0.000
  202.160	   11.000	    0.000	    0.000	    0.324	    0.200	    0.000	    0.000
  202.170	   11.000	    0.000	    0.000	    0.326	    0.200	    0.000	    0.000
  202.180	   11.000	    0.000	    0.000	    0.329	    0.200	    0.000	    0.000
  202.190	   11.000	    0.000	    0.000	    0.332	    0.200	    0.000	    0.000
  202.200	   11.000	    0.000	    0.000	    0.334	    0.200	    0.000	    0.000
  202.210	   11.000	    0.000	    0.000	    0.337	    0.200	    0.000	    0.000
  202.220	   11.000	    0.000	    0.000	    0.340	    0.200	    0.000	    0.000
  202.230	   11.000	    0.000	    0.000	    0.343	    0.200	    0.000	    0.000
  202.240	   11.000	    0.000	    0.000	    0.345	    0.200	    0.000	    0.000
  202.250	   11.000	    0.000	    0.000	    0.348	    0.200	    0.000	    0.000
  202.260	   11.000	    0.000	    0.000	    0.351	    0.200	    0.000	    0.000
  202.270	   11.000	    0.000	    0.000	    0.353	    0.200	    0.000	    0.000
  202.280	   11.000	    0.000	    0.000	    0.356	    0.200	    0.000	    0.000
  202.290	   11.000	    0.000	    0.000	    0.359	    0.200	    0.000	    0.000
  202.300	   11.000	    0.000	    0.000	    0.362	    0.200	    0.000	    0.000
  202.310	   11.000	    0.000	    0.000	    0.364	    0.200	    0.000	    0.000
  202.320	   11.000	    0.000	    0.000	    0.367	    0.200	    0.000	    0.000
  202.330	   11.000	    0.000	    0.000	    0.370	    0.200	    0.000	    0.000
  202.340	   11.000	    0.000	    0.000	    0.373	    0.200	    0.000	    0.000
  202.350	   11.000	    0.000	    0.000	    0.376	    0.200	    0.000	    0.000
  202.360	   11.000	    0.000	    0.000	    0.378	    0.200	    0.000	    0.000
  202.370	   11.000	    0.000	    0.000	    0.381	    0.200	    0.000	    0.000
  202.380	   11.000	    0.000	    0.000	    0.384	    0.200	    0.000	    0.000
  202.390	   11.000	    0.000	    0.000	    0.387	    0.200	    0.000	    0.000
  202.400	   11.000	    0.000	    0.000	    0.390	    0.200	    0.000	    0.000
  202.410	   11.000	    0.000	    0.000	    0.392	    0.200	    0.000	    0.000
  202.420	   11.000	    0.000	    0.000	    0.395	    0.200	    0.000	    0.000
  202.430	   11.000	    0.000	    0.000	    0.398	    0.200	    0.000	    0.000
  202.440	   11.000	    0.000	    0.000	    0.401	    0.200	    0.000	    0.000
  202.450	   11.000	    0.000	    0.000	    0.404	    0.200	    0.000	    0.000
  202.460	   11.000	    0.000	    0.000	    0.406	    0.200	    0.000	    0.000
  202.470	   11.000	    0.000	    0.000	    0.409	    0.200	    0.000	    0.000
  202.480	   11.000	    0.000	    0.000	    0.412	    0.200	    0.000	    0.000
  202.490	   11.000	    0.000	    0.000	    0.415	    0.200	    0.000	    0.000
  202.500	   11.000	    0.000	    0.000	    0.418	    0.200	    0.000	    0.000
  202.510	   11.000	    0.000	    0.000	    0.421	    0.200	    0.000	    0.000
  202.520	   11.000	    0.000	    0.000	    0.424	    0.200	    0.000	    0.000
  202.530	   11.000	    0.000	    0.000	    0.426	    0.200	    0.000	    0.000
  202.540	   11.000	    0.000	    0.000	    0.429	    0.200	    0.000	    0.000
  202.550	   11.000	    0.000	    0.000	    0.432	    0.200	    0.000	    0.000
  202.560	   11.000	    0.000	    0.000	    0.435	    0.200	    0.000	    0.000
  202.570	   11.000	    0.000	    0.000	    0.438	    0.200	    0.000	    0.000
  202.580	   11.000	    0.000	    0.000	    0.441	    0.200	    0.000	    0.000
  202.590	   11.000	    0.000	    0.000	    0.444	    0.200	    0.000	    0.000
  202.600	   11.000	    0.000	    0.000	    0.447	    0.200	    0.000	    0.000
  202.610	   11.000	    0.000	    0.000	    0.449	    0.200	    0.000	    0.000
  202.620	   11.000	    0.000	    0.000	    0.452	    0.200	    0.000	    0.000
  202.630	   11.000	    0.000	    0.000	    0.455	    0.200	    0.000	    0.000
  202.640	   11.000	    0.000	    0.000	    0.458	    0.200	    0.000	    0.000
  202.650	   11.000	    0.000	    0.000	    0.461	    0.200	    0.000	    0.000
  202.660	   11.000	    0.000	    0.000	    0.464	    0.200	    0.000	    0.000
  202.670	   11.000	    0.000	    0.000	    0.467	    0.200	    0.000	    0.000
  202.680	   11.000	    0.000	    0.000	    0.470	    0.200	    0.000	    0.000
  202.690	   11.000	    0.000	    0.000	    0.473	    0.200	    0.000	    0.000
  202.700	   11.000	    0.000	    0.000	    0.476	    0.200	    0.000	    0.000
  202.710	   11.000	    0.000	    0.000	    0.478	    0.200	    0.000	    0.000
  202.720	   11.000	    0.000	    0.000	    0.481	    0.200	    0.000	    0.000
  202.730	   11.000	    0.000	    0.000	    0.484	    0.200	    0.000	    0.000
  202.740	   11.000	    0.000	    0.000	    0.487	    0.200	    0.000	    0.000
  202.750	   11.000	    0.000	    0.000	    0.490	    0.200	    0.000	    0.000
  202.760	   11.000	    0.000	    0.000	    0.493	    0.200	    0.000	    0.000
  202.770	   11.000	    0.000	    0.000	    0.496	    0.200	    0.000	    0.000
  202.780	   11.000	    0.000	    0.000	    0.499	    0.200	    0.000	    0.000
  202.790	   11.000	    0.000	    0.000	    0.502	    0.200	    0.000	    0.000
  202.800	   11.000	    0.000	    0.000	    0.505	    0.200	    0.000	    0.000
  202.810	   11.000	    0.000	    0.000	    0.508	    0.200	    0.000	    0.000
  202.820	   11.000	    0.000	    0.000	    0.511	    0.200	    0.000	    0.000
  202.830	   11.000	    0.000	    0.000	    0.514	    0.200	    0.000	    0.000
  202.840	   11.000	    0.000	    0.000	    0.517	    0.200	    0.000	    0.000
  202.850	   11.000	    0.000	    0.000	    0.519	    0.200	    0.000	    0.000
  202.860	   11.000	    0.000	    0.000	    0.522	    0.200	    0.000	    0.000
  202.870	   11.000	    0.000	    0.000	    0.525	    0.200	    0.000	    0.000
  202.880	   11.000	    0.000	    0.000	    0.528	    0.200	    0.000	    0.000
  202.890	   11.000	    0.000	    0.000	    0.531	    0.200	    0.000	    0.000
  202.900	   11.000	    0.000	    0.000	    0.534	    0.200	    0.000	    0.000
  202.910	   11.000	    0.000	    0.000	    0.537	    0.200	    0.000	    0.000
  202.920	   11.000	    0.000	    0.000	    0.540	    0.200	    0.000	    0.000
  202.930	   11.000	    0.000	    0.000	    0.543	    0.200	    0.000	    0.000
  202.940	   11.000	    0.000	    0.000	    0.546	    0.200	    0.000	    0.000
  202.950	   11.000	    0.000	    0.000	    0.549	    0.200	    0.000	    0.000
  202.960	   11.000	    0.000	    0.000	    0.552	    0.200	    0.000	    0.000
  202.970	   11.000	    0.000	    0.000	    0.555	    0.200	    0.000	    0.000
  202.980	   11.000	    0.000	    0.000	    0.558	    0.200	    0.000	    0.000
  202.990	   11.000	    0.000	    0.000	    0.561	    0.200	    0.000	    0.000
  203.000	   11.000	    0.000	    0.000	    0.564	    0.200	    0.000	    0.000
  203.010	   11.000	    0.000	    0.000	    0.567	    0.200	    0.000	    0.000
  203.020	   11.000	    0.000	    0.000	    0.570	    0.200	    0.000	    0.000
  203.030	   11.000	    0.000	    0.000	    0.573	    0.200	    0.000	    0.000
  203.040	   11.000	    0.000	    0.000	    0.576	    0.200	    0.000	    0.000
  203.050	   11.000	    0.000	    0.000	    0.578	    0.200	    0.000	    0.000
  203.060	   11.000	    0.000	    0.000	    0.581	    0.200	    0.000	    0.000
  203.070	   11.000	    0.000	    0.000	    0.584	    0.200	    0.000	    0.000
  203.080	   11.000	    0.000	    0.000	    0.587	    0.200	    0.000	    0.000
  203.090	   11.000	    0.000	    0.000	    0.590	    0.200	    0.000	    0.000
  203.100	   11.000	    0.000	    0.000	    0.593	    0.200	    0.000	    0.000
  203.110	   11.000	    0.000	    0.000	    0.596	    0.200	    0.000	    0.000
  203.120	   11.000	    0.000	    0.000	    0.599	    0.200	    0.000	    0.000
  203.130	   11.000	    0.000	    0.000	    0.602	    0.200	    0.000	    0.000
  203.140	   11.000	    0.000	    0.000	    0.605	    0.200	    0.000	    0.000
  203.150	   11.000	    0.000	    0.000	    0.608	    0.200	    0.000	    0.000
  203.160	   11.000	    0.000	    0.000	    0.611	    0.200	    0.000	    0.000
  203.170	   11.000	    0.000	    0.000	    0.614	    0.200	    0.000	    0.000
  203.180	   11.000	    0.000	    0.000	    0.617	    0.200	    0.000	    0.000
  203.190	   11.000	    0.000	    0.000	    0.620	    0.200	    0.000	    0.000
  203.200	   11.000	    0.000	    0.000	    0.623	    0.200	    0.000	    0.000
  203.210	   11.000	    0.000	    0.000	    0.626	    0.200	    0.000	    0.000
  203.220	   11.000	    0.000	    0.000	    0.629	    0.200	    0.000	    0.000
  203.230	   11.000	    0.000	    0.000	    0.631	    0.200	    0.000	    0.000
  203.240	   11.000	    0.000	    0.000	    0.634	    0.200	    0.000	    0.000
  203.250	   11.000	    0.000	    0.000	    0.637	    0.200	    0.000	    0.000
  203.260	   11.000	    0.000	    0.000	    0.640	    0.200	    0.000	    0.000
  203.270	   11.000	    0.000	    0.000	    0.643	    0.200	    0.000	    0.000
  203.280	   11.000	    0.000	    0.000	    0.646	    0.200	    0.000	    0.000
  203.290	   11.000	    0.000	    0.000	    0.649	    0.200	    0.000	    0.000
  203.300	   11.000	    0.000	    0.000	    0.652	    0.200	    0.000	    0.000
  203.310	   11.000	    0.000	    0.000	    0.655	    0.200	    0.000	    0.000
  203.320	   11.000	    0.000	    0.000	    0.658	    0.200	    0.000	    0.000
  203.330	   11.000	    0.000	    0.000	    0.661	    0.200	    0.000	    0.000
  203.340	   11.000	    0.000	    0.000	    0.664	    0.200	    0.000	    0.000
  203.350	   11.000	    0.000	    0.000	    0.666	    0.200	    0.000	    0.000
  203.360	   11.000	    0.000	    0.000	    0.669	    0.200	    0.000	    0.000
  203.370	   11.000	    0.000	    0.000	    0.672	    0.200	    0.000	    0.000
  203.380	   11.000	    0.000	    0.000	    0.675	    0.200	    0.000	    0.000
  203.390	   11.000	    0.000	    0.000	    0.678	    0.200	    0.000	    0.000
  203.400	   11.000	    0.000	    0.000	    0.681	    0.200	    0.000	    0.000
  203.410	   11.000	    0.000	    0.000	    0.684	    0.200	    0.000	    0.000
  203.420	   11.000	    0.000	    0.000	    0.687	    0.200	    0.000	    0.000
  203.430	   11.000	    0.000	    0.000	    0.690	    0.200	    0.000	    0.000
  203.440	   11.000	    0.000	    0.000	    0.692	    0.200	    0.000	    0.000
  203.450	   11.000	    0.000	    0.000	    0.695	    0.200	    0.000	    0.000
  203.460	   11.000	    0.000	    0.000	    0.698	    0.200	    0.000	    0.000
  203.470	   11.000	    0.000	    0.000	    0.701	    0.200	    0.000	    0.000
  203.480	   11.000	    0.000	    0.000	    0.704	    0.200	    0.000	    0.000
  203.490	   11.000	    0.000	    0.000	    0.707	    0.200	    0.000	    0.000
  203.500	   11.000	    0.000	    0.000	    0.710	    0.200	    0.000	    0.000
  203.510	   11.000	    0.000	    0.000	    0.712	    0.200	    0.000	    0.000
  203.520	   11.000	    0.000	    0.000	    0.715	    0.200	    0.000	    0.000
  203.530	   11.000	    0.000	    0.000	    0.718	    0.200	    0.000	    0.000
  203.540	   11.000	    0.000	    0.000	    0.721	    0.200	    0.000	    0.000
  203.550	   11.000	    0.000	    0.000	    0.724	    0.200	    0.000	    0.000
  203.560	   11.000	    0.000	    0.000	    0.727	    0.200	    0.000	    0.000
  203.570	   11.000	    0.000	    0.000	    0.729	    0.200	    0.000	    0.000
  203.580	   11.000	    0.000	    0.000	    0.732	    0.200	    0.000	    0.000
  203.590	   11.000	    0.000	    0.000	    0.735	    0.200	    0.000	    0.000
  203.600	   11.000	    0.000	    0.000	    0.738	    0.200	    0.000	    0.000
  203.610	   11.000	    0.000	    0.000	    0.741	    0.200	    0.000	    0.000
  203.620	   11.000	    0.000	    0.000	    0.744	    0.200	    0.000	    0.000
  203.630	   11.000	    0.000	    0.000	    0.746	    0.200	    0.000	    0.000
  203.640	   11.000	    0.000	    0.000	    0.749	    0.200	    0.000	    0.000
  203.650	   11.000	    0.000	    0.000	    0.752	    0.200	    0.000	    0.000
  203.660	   11.000	    0.000	    0.000	    0.755	    0.200	    0.000	    0.000
  203.670	   11.000	    0.000	    0.000	    0.757	    0.200	    0.000	    0.000
  203.680	   11.000	    0.000	    0.000	    0.760	    0.200	    0.000	    0.000
  203.690	   11.000	    0.000	    0.000	    0.763	    0.200	    0.000	    0.000
  203.700	   11.000	    0.000	    0.000	    0.766	    0.200	    0.000	    0.000
  203.710	   11.000	    0.000	    0.000	    0.768	    0.200	    0.000	    0.000
  203.720	   11.000	    0.000	    0.000	    0.771	    0.200	    0.000	    0.000
  203.730	   11.000	    0.000	    0.000	    0.774	    0.200	    0.000	    0.000
  203.740	   11.000	    0.000	    0.000	    0.777	    0.200	    0.000	    0.000
  203.750	   11.000	    0.000	    0.000	    0.779	    0.200	    0.000	    0.000
  203.760	   11.000	    0.000	    0.000	    0.782	    0.200	    0.000	    0.000
  203.770	   11.000	    0.000	    0.000	    0.785	    0.200	    0.000	    0.000
  203.780	   11.000	    0.000	    0.000	    0.788	    0.200	    0.000	    0.000
  203.790	   11.000	    0.000	    0.000	    0.790	    0.200	    0.000	    0.000
  203.800	   11.000	    0.000	    0.000	    0.793	    0.200	    0.000	    0.000
  203.810	   11.000	    0.000	    0.000	    0.796	    0.200	    0.000	    0.000
  203.820	   11.000	    0.000	    0.000	    0.798	    0.200	    0.000	    0.000
  203.830	   11.000	    0.000	    0.000	    0.801	    0.200	    0.000	    0.000
  203.840	   11.000	    0.000	    0.000	    0.804	    0.200	    0.000	    0.000
  203.850	   11.000	    0.000	    0.000	    0.806	    0.200	    0.000	    0.000
  203.860	   11.000	    0.000	    0.000	    0.809	    0.200	    0.000	    0.000
  203.870	   11.000	    0.000	    0.000	    0.812	    0.200	    0.000	    0.000
  203.880	   11.000	    0.000	    0.000	    0.814	    0.200	    0.000	    0.000
  203.890	   11.000	    0.000	    0.000	    0.817	    0.200	    0.000	    0.000
  203.900	   11.000	    0.000	    0.000	    0.820	    0.200	    0.000	    0.000
  203.910	   11.000	    0.000	    0.000	    0.822	    0.200	    0.000	    0.000
  203.920	   11.000	    0.000	    0.000	    0.825	    0.200	    0.000	    0.000
  203.930	   11.000	    0.000	    0.000	    0.828	    0.200	    0.000	    0.000
  203.940	   11.000	    0.000	    0.000	    0.830	    0.200	    0.000	    0.000
  203.950	   11.000	    0.000	    0.000	    0.833	    0.200	    0.000	    0.000
  203.960	   11.000	    0.000	    0.000	    0.835	    0.200	    0.000	    0.000
  203.970	   11.000	    0.000	    0.000	    0.838	    0.200	    0.000	    0.000
  203.980	   11.000	    0.000	    0.000	    0.840	    0.200	    0.000	    0.000
  203.990	   11.000	    0.000	    0.000	    0.843	    0.200	    0.000	    0.000
  204.000	   11.000	    0.000	    0.000	    0.846	    0.200	    0.000	    0.000
  204.010	   11.000	    0.000	    0.000	    0.848	    0.200	    0.000	    0.000
  204.020	   11.000	    0.000	    0.000	    0.851	    0.200	    0.000	    0.000
  204.030	   11.000	    0.000	    0.000	    0.853	    0.200	    0.000	    0.000
  204.040	   11.000	    0.000	    0.000	    0.856	    0.200	    0.000	    0.000
  204.050	   11.000	    0.000	    0.000	    0.858	    0.200	    0.000	    0.000
  204.060	   11.000	    0.000	    0.000	    0.861	    0.200	    0.000	    0.000
  204.070	   11.000	    0.000	    0.000	    0.863	    0.200	    0.000	    0.000
  204.080	   11.000	    0.000	    0.000	    0.866	    0.200	    0.000	    0.000
  204.090	   11.000	    0.000	    0.000	    0.868	    0.200	    0.000	    0.000
  204.100	   11.000	    0.000	    0.000	    0.871	    0.200	    0.000	    0.000
  204.110	   11.000	    0.000	    0.000	    0.873	    0.200	    0.000	    0.000
  204.120	   11.000	    0.000	    0.000	    0.876	    0.200	    0.000	    0.000
  204.130	   11.000	    0.000	    0.000	    0.878	    0.200	    0.000	    0.000
  204.140	   11.000	    0.000	    0.000	    0.881	    0.200	    0.000	    0.000
  204.150	   11.000	    0.000	    0.000	    0.883	    0.200	    0.000	    0.000
  204.160	   11.000	    0.000	    0.000	    0.885	    0.200	    0.000	    0.000
  204.170	   11.000	    0.000	    0.000	    0.888	    0.200	    0.000	    0.000
  204.180	   11.000	    0.000	    0.000	    0.890	    0.200	    0.000	    0.000
  204.190	   11.000	    0.000	    0.000	    0.893	    0.200	    0.000	    0.000
  204.200	   11.000	    0.000	    0.000	    0.895	    0.200	    0.000	    0.000
  204.210	   11.000	    0.000	    0.000	    0.897	    0.200	    0.000	    0.000
  204.220	   11.000	    0.000	    0.000	    0.900	    0.200	    0.000	    0.000
  204.230	   11.000	    0.000	    0.000	    0.902	    0.200	    0.000	    0.000
  204.240	   11.000	    0.000	    0.000	    0.905	    0.200	    0.000	    0.000
  204.250	   11.000	    0.000	    0.000	    0.907	    0.200	    0.000	    0.000
  204.260	   11.000	    0.000	    0.000	    0.909	    0.200	    0.000	    0.000
  204.270	   11.000	    0.000	    0.000	    0.912	    0.200	    0.000	    0.000
  204.280	   11.000	    0.000	    0.000	    0.914	    0.200	    0.000	    0.000
  204.290	   11.000	    0.000	    0.000	    0.916	    0.200	    0.000	    0.000
  204.300	   11.000	    0.000	    0.000	    0.918	    0.200	    0.000	    0.000
  204.310	   11.000	    0.000	    0.000	    0.921	    0.200	    0.000	    0.000
  204.320	   11.000	    0.000	    0.000	    0.923	    0.200	    0.000	    0.000
  204.330	   11.000	    0.000	    0.000	    0.925	    0.200	    0.000	    0.000
  204.340	   11.000	    0.000	    0.000	    0.928	    0.200	    0.000	    0.000
  204.350	   11.000	    0.000	    0.000	    0.930	    0.200	    0.000	    0.000
  204.360	   11.000	    0.000	    0.000	    0.932	    0.200	    0.000	    0.000
  204.370	   11.000	    0.000	    0.000	    0.934	    0.200	    0.000	    0.000
  204.380	   11.000	    0.000	    0.000	    0.937	    0.200	    0.000	    0.000
  204.390	   11.000	    0.000	    0.000	    0.939	    0.200	    0.000	    0.000
  204.400	   11.000	    0.000	    0.000	    0.941	    0.200	    0.000	    0.000
  204.410	   11.000	    0.000	    0.000	    0.943	    0.200	    0.000	    0.000
  204.420	   11.000	    0.000	    0.000	    0.945	    0.200	    0.000	    0.000
  204.430	   11.000	    0.000	    0.000	    0.947	    0.200	    0.000	    0.000
  204.440	   11.000	    0.000	    0.000	    0.950	    0.200	    0.000	    0.000
  204.450	   11.000	    0.000	    0.000	    0.952	    0.200	    0.000	    0.000
  204.460	   11.000	    0.000	    0.000	    0.954	    0.200	    0.000	    0.000
  204.470	   11.000	    0.000	    0.000	    0.956	    0.200	    0.000	    0.000
  204.480	   11.000	    0.000	    0.000	    0.958	    0.200	    0.000	    0.000
  204.490	   11.000	    0.000	    0.000	    0.960	    0.200	    0.000	    0.000
  204.500	   11.000	    0.000	    0.000	    0.962	    0.200	    0.000	    0.000
  204.510	   11.000	    0.000	    0.000	    0.964	    0.200	    0.000	    0.000
  204.520	   11.000	    0.000	    0.000	    0.966	    0.200	    0.000	    0.000
  204.530	   11.000	    0.000	    0.000	    0.969	    0.200	    0.000	    0.000
  204.540	   11.000	    0.000	    0.000	    0.971	    0.200	    0.000	    0.000
  204.550	   11.000	    0.000	    0.000	    0.973	    0.200	    0.000	    0.000
  204.560	   11.000	    0.000	    0.000	    0.975	    0.200	    0.000	    0.000
  204.570	   11.000	    0.000	    0.000	    0.977	    0.200	    0.000	    0.000
  204.580	   11.000	    0.000	    0.000	    0.979	    0.200	    0.000	    0.000
  204.590	   11.000	    0.000	    0.000	    0.981	    0.200	    0.000	    0.000
  204.600	   11.000	    0.000	    0.000	    0.983	    0.200	    0.000	    0.000
  204.610	   11.000	    0.000	    0.000	    0.985	    0.200	    0.000	    0.000
  204.620	   11.000	    0.000	    0.000	    0.987	    0.200	    0.000	    0.000
  204.630	   11.000	    0.000	    0.000	    0.989	    0.200	    0.000	    0.000
  204.640	   11.000	    0.000	    0.000	    0.990	    0.200	    0.000	    0.000
  204.650	   11.000	    0.000	    0.000	    0.992	    0.200	    0.000	    0.000
  204.660	   11.000	    0.000	    0.000	    0.994	    0.200	    0.000	    0.000
  204.670	   11.000	    0.000	    0.000	    0.996	    0.200	    0.000	    0.000
  204.680	   11.000	    0.000	    0.000	    0.998	    0.200	    0.000	    0.000
  204.690	   11.000	    0.000	    0.000	    1.000	    0.200	    0.000	    0.000
  204.700	   11.000	    0.000	    0.000	    1.002	    0.200	    0.000	    0.000
  204.710	   11.000	    0.000	    0.000	    1.004	    0.200	    0.000	    0.000
  204.720	   11.000	    0.000	    0.000	    1.006	    0.200	    0.000	    0.000
  204.730	   11.000	    0.000	    0.000	    1.007	    0.200	    0.000	    0.000
  204.740	   11.000	    0.000	    0.000	    1.009	    0.200	    0.000	    0.000
  204.750	   11.000	    0.000	    0.000	    1.011	    0.200	    0.000	    0.000
  204.760	   11.000	    0.000	    0.000	    1.013	    0.200	    0.000	    0.000
  204.770	   11.000	    0.000	    0.000	    1.015	    0.200	    0.000	    0.000
  204.780	   11.000	    0.000	    0.000	    1.016	    0.200	    0.000	    0.000
  204.790	   11.000	    0.000	    0.000	    1.018	    0.200	    0.000	    0.000
  204.800	   11.000	    0.000	    0.000	    1.020	    0.200	    0.000	    0.000
  204.810	   11.000	    0.000	    0.000	    1.022	    0.200	    0.000	    0.000
  204.820	   11.000	    0.000	    0.000	    1.023	    0.200	    0.000	    0.000
  204.830	   11.000	    0.000	    0.000	    1.025	    0.200	    0.000	    0.000
  204.840	   11.000	    0.000	    0.000	    1.027	    0.200	    0.000	    0.000
  204.850	   11.000	    0.000	    0.000	    1.028	    0.200	    0.000	    0.000
  204.860	   11.000	    0.000	    0.000	    1.030	    0.200	    0.000	    0.000
  204.870	   11.000	    0.000	    0.000	    1.032	    0.200	    0.000	    0.000
  204.880	   11.000	    0.000	    0.000	    1.033	    0.200	    0.000	    0.000
  204.890	   11.000	    0.000	    0.000	    1.035	    0.200	    0.000	    0.000
  204.900	   11.000	    0.000	    0.000	    1.036	    0.200	    0.000	    0.000
  204.910	   11.000	    0.000	    0.000	    1.038	    0.200	    0.000	    0.000
  204.920	   11.000	    0.000	    0.000	    1.040	    0.200	    0.000	    0.000
  204.930	   11.000	    0.000	    0.000	    1.041	    0.200	    0.000	    0.000
  204.940	   11.000	    0.000	    0.000	    1.043	    0.200	    0.000	    0.000
  204.950	   11.000	    0.000	    0.000	    1.044	    0.200	    0.000	    0.000
  204.960	   11.000	    0.000	    0.000	    1.046	    0.200	    0.000	    0.000
  204.970	   11.000	    0.000	    0.000	    1.047	    0.200	    0.000	    0.000
  204.980	   11.000	    0.000	    0.000	    1.049	    0.200	    0.000	    0.000
  204.990	   11.000	    0.000	    0.000	    1.050	    0.200	    0.000	    0.000
  205.000	   11.000	    0.000	    0.000	    1.052	    0.200	    0.000	    0.000
  205.010	   11.000	    0.000	    0.000	    1.053	    0.200	    0.000	    0.000
  205.020	   11.000	    0.000	    0.000	    1.055	    0.200	    0.000	    0.000
  205.030	   11.000	    0.000	    0.000	    1.056	    0.200	    0.000	    0.000
  205.040	   11.000	    0.000	    0.000	    1.058	    0.200	    0.000	    0.000
  205.050	   11.000	    0.000	    0.000	    1.059	    0.200	    0.000	    0.000
  205.060	   11.000	    0.000	    0.000	    1.061	    0.200	    0.000	    0.000
  205.070	   11.000	    0.000	    0.000	    1.062	    0.200	    0.000	    0.000
  205.080	   11.000	    0.000	    0.000	    1.063	    0.200	    0.000	    0.000
  205.090	   11.000	    0.000	    0.000	    1.065	    0.200	    0.000	    0.000
  205.100	   11.000	    0.000	    0.000	    1.066	    0.200	    0.000	    0.000
  205.110	   11.000	    0.000	    0.000	    1.067	    0.200	    0.000	    0.000
  205.120	   11.000	    0.000	    0.000	    1.069	    0.200	    0.000	    0.000
  205.130	   11.000	    0.000	    0.000	    1.070	    0.200	    0.000	    0.000
  205.140	   11.000	    0.000	    0.000	    1.071	    0.200	    0.000	    0.000
  205.150	   11.000	    0.000	    0.000	    1.073	    0.200	    0.000	    0.000
  205.160	   11.000	    0.000	    0.000	    1.074	    0.200	    0.000	    0.000
  205.170	   11.000	    0.000	    0.000	    1.075	    0.200	    0.000	    0.000
  205.180	   11.000	    0.000	    0.000	    1.076	    0.200	    0.000	    0.000
  205.190	   11.000	    0.000	    0.000	    1.077	    0.200	    0.000	    0.000
  205.200	   11.000	    0.000	    0.000	    1.079	    0.200	    0.000	    0.000
  205.210	   11.000	    0.000	    0.000	    1.080	    0.200	    0.000	    0.000
  205.220	   11.000	    0.000	    0.000	    1.081	    0.200	    0.000	    0.000
  205.230	   11.000	    0.000	    0.000	    1.082	    0.200	    0.000	    0.000
  205.240	   11.000	    0.000	    0.000	    1.083	    0.200	    0.000	    0.000
  205.250	   11.000	    0.000	    0.000	    1.085	    0.200	    0.000	    0.000
  205.260	   11.000	    0.000	    0.000	    1.086	    0.200	    0.000	    0.000
  205.270	   11.000	    0.000	    0.000	    1.087	    0.200	    0.000	    0.000
  205.280	   11.000	    0.000	    0.000	    1.088	    0.200	    0.000	    0.000
  205.290	   11.000	    0.000	    0.000	    1.089	    0.200	    0.000	    0.000
  205.300	   11.000	    0.000	    0.000	    1.090	    0.200	    0.000	    0.000
  205.310	   11.000	    0.000	    0.000	    1.091	    0.200	    0.000	    0.000
  205.320	   11.000	    0.000	    0.000	    1.092	    0.200	    0.000	    0.000
  205.330	   11.000	    0.000	    0.000	    1.093	    0.200	    0.000	    0.000
  205.340	   11.000	    0.000	    0.000	    1.094	    0.200	    0.000	    0.000
  205.350	   11.000	    0.000	    0.000	    1.095	    0.200	    0.000	    0.000
  205.360	   11.000	    0.000	    0.000	    1.096	    0.200	    0.000	    0.000
  205.370	   11.000	    0.000	    0.000	    1.097	    0.200	    0.000	    0.000
  205.380	   11.000	    0.000	    0.000	    1.098	    0.200	    0.000	    0.000
  205.390	   11.000	    0.000	    0.000	    1.099	    0.200	    0.000	    0.000
  205.400	   11.000	    0.000	    0.000	    1.100	    0.200	    0.000	    0.000
  205.410	   11.000	    0.000	    0.000	    1.101	    0.200	    0.000	    0.000
  205.420	   11.000	    0.000	    0.000	    1.102	    0.200	    0.000	    0.000
  205.430	   11.000	    0.000	    0.000	    1.103	    0.200	    0.000	    0.000
  205.440	   11.000	    0.000	    0.000	    1.103	    0.200	    0.000	    0.000
  205.450	   11.000	    0.000	    0.000	    1.104	    0.200	    0.000	    0.000
  205.460	   11.000	    0.000	    0.000	    1.105	    0.200	    0.000	    0.000
  205.470	   11.000	    0.000	    0.000	    1.106	    0.200	    0.000	    0.000
  205.480	   11.000	    0.000	    0.000	    1.107	    0.200	    0.000	    0.000
  205.490	   11.000	    0.000	    0.000	    1.107	    0.200	    0.000	    0.000
  205.500	   11.000	    0.000	    0.000	    1.108	    0.200	    0.000	    0.000
  205.510	   11.000	    0.000	    0.000	    1.109	    0.200	    0.000	    0.000
  205.520	   11.000	    0.000	    0.000	    1.110	    0.200	    0.000	    0.000
  205.530	   11.000	    0.000	    0.000	    1.110	    0.200	    0.000	    0.000
  205.540	   11.000	    0.000	    0.000	    1.111	    0.200	    0.000	    0.000
  205.550	   11.000	    0.000	    0.000	    1.112	    0.200	    0.000	    0.000
  205.560	   11.000	    0.000	    0.000	    1.113	    0.200	    0.000	    0.000
  205.570	   11.000	    0.000	    0.000	    1.113	    0.200	    0.000	    0.000
  205.580	   11.000	    0.000	    0.000	    1.114	    0.200	    0.000	    0.000
  205.590	   11.000	    0.000	    0.000	    1.115	    0.200	    0.000	    0.000
  205.600	   11.000	    0.000	    0.000	    1.115	    0.200	    0.000	    0.000
  205.610	   11.000	    0.000	    0.000	    1.116	    0.200	    0.000	    0.000
  205.620	   11.000	    0.000	    0.000	    1.116	    0.200	    0.000	    0.000
  205.630	   11.000	    0.000	    0.000	    1.117	    0.200	    0.000	    0.000
  205.640	   11.000	    0.000	    0.000	    1.117	    0.200	    0.000	    0.000
  205.650	   11.000	    0.000	    0.000	    1.118	    0.200	    0.000	    0.000
  205.660	   11.000	    0.000	    0.000	    1.119	    0.200	    0.000	    0.000
  205.670	   11.000	    0.000	    0.000	    1.119	    0.200	    0.000	    0.000
  205.680	   11.000	    0.000	    0.000	    1.120	    0.200	    0.000	    0.000
  205.690	   11.000	    0.000	    0.000	    1.120	    0.200	    0.000	    0.000
  205.700	   11.000	    0.000	    0.000	    1.121	    0.200	    0.000	    0.000
  205.710	   11.000	    0.000	    0.000	    1.121	    0.200	    0.000	    0.000
  205.720	   11.000	    0.000	    0.000	    1.121	    0.200	    0.000	    0.000
  205.730	   11.000	    0.000	    0.000	    1.122	    0.200	    0.000	    0.000
  205.740	   11.000	    0.000	    0.000	    1.122	    0.200	    0.000	    0.000
  205.750	   11.000	    0.000	    0.000	    1.123	    0.200	    0.000	    0.000
  205.760	   11.000	    0.000	    0.000	    1.123	    0.200	    0.000	    0.000
  205.770	   11.000	    0.000	    0.000	    1.123	    0.200	    0.000	    0.000
  205.780	   11.000	    0.000	    0.000	    1.124	    0.200	    0.000	    0.000
  205.790	   11.000	    0.000	    0.000	    1.124	    0.200	    0.000	    0.000
  205.800	   11.000	    0.000	    0.000	    1.124	    0.200	    0.000	    0.000
  205.810	   11.000	    0.000	    0.000	    1.125	    0.200	    0.000	    0.000
  205.820	   11.000	    0.000	    0.000	    1.125	    0.200	    0.000	    0.000
  205.830	   11.000	    0.000	    0.000	    1.125	    0.200	    0.000	    0.000
  205.840	   11.000	    0.000	    0.000	    1.125	    0.200	    0.000	    0.000
  205.850	   11.000	    0.000	    0.000	    1.126	    0.200	    0.000	    0.000
  205.860	   11.000	    0.000	    0.000	    1.126	    0.200	    0.000	    0.000
  205.870	   11.000	    0.000	    0.000	    1.126	    0.200	    0.000	    0.000
  205.880	   11.000	    0.000	    0.000	    1.126	    0.200	    0.000	    0.000
  205.890	   11.000	    0.000	    0.000	    1.127	    0.200	    0.000	    0.000
  205.900	   11.000	    0.000	    0.000	    1.127	    0.200	    0.000	    0.000
  205.910	   11.000	    0.000	    0.000	    1.127	    0.200	    0.000	    0.000
  205.920	   11.000	    0.000	    0.000	    1.127	    0.200	    0.000	    0.000
  205.930	   11.000	    0.000	    0.000	    1.127	    0.200	    0.000	    0.000
  205.940	   11.000	    0.000	    0.000	    1.127	    0.200	    0.000	    0.000
  205.950	   11.000	    0.000	    0.000	    1.127	    0.200	    0.000	    0.000
  205.960	   11.000	    0.000	    0.000	    1.127	    0.200	    0.000	    0.000
  205.970	   11.000	    0.000	    0.000	    1.127	    0.200	    0.000	    0.000
  205.980	   11.000	    0.000	    0.000	    1.127	    0.200	    0.000	    0.000
  205.990	   11.000	    0.000	    0.000	    1.127	    0.200	    0.000	    0.000
  206.000	   11.000	    0.000	    0.000	    1.127	    0.200	    0.000	    0.000
  206.010	   11.000	    0.000	    0.000	    1.127	    0.200	    0.000	    0.000
  206.020	   11.000	    0.000	    0.000	    1.127	    0.200	    0.000	    0.000
  206.030	   11.000	    0.000	    0.000	    1.127	    0.200	    0.000	    0.000
  206.040	   11.000	    0.000	    0.000	    1.127	    0.200	    0.000	    0.000
  206.050	   11.000	    0.000	    0.000	    1.127	    0.200	    0.000	    0.000
  206.060	   11.000	    0.000	    0.000	    1.127	    0.200	    0.000	    0.000
  206.070	   11.000	    0.000	    0.000	    1.127	    0.200	    0.000	    0.000
  206.080	   11.000	    0.000	    0.000	    1.127	    0.200	    0.000	    0.000
  206.090	   11.000	    0.000	    0.000	    1.127	    0.200	    0.000	    0.000
  206.100	   11.000	    0.000	    0.000	    1.127	    0.200	    0.000	    0.000
  206.110	   11.000	    0.000	    0.000	    1.127	    0.200	    0.000	    0.000
  206.120	   11.000	    0.000	    0.000	    1.126	    0.200	    0.000	    0.000
  206.130	   11.000	    0.000	    0.000	    1.126	    0.200	    0.000	    0.000
  206.140	   11.000	    0.000	    0.000	    1.126	    0.200	    0.000	    0.000
  206.150	   11.000	    0.000	    0.000	    1.126	    0.200	    0.000	    0.000
  206.160	   11.000	    0.000	    0.000	    1.125	    0.200	    0.000	    0.000
  206.170	   11.000	    0.000	    0.000	    1.125	    0.200	    0.000	    0.000
  206.180	   11.000	    0.000	    0.000	    1.125	    0.200	    0.000	    0.000
  206.190	   11.000	    0.000	    0.000	    1.125	    0.200	    0.000	    0.000
  206.200	   11.000	    0.000	    0.000	    1.124	    0.200	    0.000	    0.000
  206.210	   11.000	    0.000	    0.000	    1.124	    0.200	    0.000	    0.000
  206.220	   11.000	    0.000	    0.000	    1.124	    0.200	    0.000	    0.000
  206.230	   11.000	    0.000	    0.000	    1.123	    0.200	    0.000	    0.000
  206.240	   11.000	    0.000	    0.000	    1.123	    0.200	    0.000	    0.000
  206.250	   11.000	    0.000	    0.000	    1.123	    0.200	    0.000	    0.000
  206.260	   11.000	    0.000	    0.000	    1.122	    0.200	    0.000	    0.000
  206.270	   11.000	    0.000	    0.000	    1.122	    0.200	    0.000	    0.000
  206.280	   11.000	    0.000	    0.000	    1.121	    0.200	    0.000	    0.000
  206.290	   11.000	    0.000	    0.000	    1.121	    0.200	    0.000	    0.000
  206.300	   11.000	    0.000	    0.000	    1.121	    0.200	    0.000	    0.000
  206.310	   11.000	    0.000	    0.000	    1.120	    0.200	    0.000	    0.000
  206.320	   11.000	    0.000	    0.000	    1.120	    0.200	    0.000	    0.000
  206.330	   11.000	    0.000	    0.000	    1.119	    0.200	    0.000	    0.000
  206.340	   11.000	    0.000	    0.000	    1.119	    0.200	    0.000	    0.000
  206.350	   11.000	    0.000	    0.000	    1.118	    0.200	    0.000	    0.000
  206.360	   11.000	    0.000	    0.000	    1.117	    0.200	    0.000	    0.000
  206.370	   11.000	    0.000	    0.000	    1.117	    0.200	    0.000	    0.000
  206.380	   11.000	    0.000	    0.000	    1.116	    0.200	    0.000	    0.000
  206.390	   11.000	    0.000	    0.000	    1.116	    0.200	    0.000	    0.000
  206.400	   11.000	    0.000	    0.000	    1.115	    0.200	    0.000	    0.000
  206.410	   11.000	    0.000	    0.000	    1.115	    0.200	    0.000	    0.000
  206.420	   11.000	    0.000	    0.000	    1.114	    0.200	    0.000	    0.000
  206.430	   11.000	    0.000	    0.000	    1.113	    0.200	    0.000	    0.000
  206.440	   11.000	    0.000	    0.000	    1.113	    0.200	    0.000	    0.000
  206.450	   11.000	    0.000	    0.000	    1.112	    0.200	    0.000	    0.000
  206.460	   11.000	    0.000	    0.000	    1.111	    0.200	    0.000	    0.000
  206.470	   11.000	    0.000	    0.000	    1.110	    0.200	    0.000	    0.000
  206.480	   11.000	    0.000	    0.000	    1.110	    0.200	    0.000	    0.000
  206.490	   11.000	    0.000	    0.000	    1.109	    0.200	    0.000	    0.000
  206.500	   11.000	    0.000	    0.000	    1.108	    0.200	    0.000	    0.000
  206.510	   11.000	    0.000	    0.000	    1.107	    0.200	    0.000	    0.000
  206.520	   11.000	    0.000	    0.000	    1.107	    0.200	    0.000	    0.000
  206.530	   11.000	    0.000	    0.000	    1.106	    0.200	    0.000	    0.000
  206.540	   11.000	    0.000	    0.000	    1.105	    0.200	    0.000	    0.000
  206.550	   11.000	    0.000	    0.000	    1.104	    0.200	    0.000	    0.000
  206.560	   11.000	    0.000	    0.000	    1.103	    0.200	    0.000	    0.000
  206.570	   11.000	    0.000	    0.000	    1.103	    0.200	    0.000	    0.000
  206.580	   11.000	    0.000	    0.000	    1.102	    0.200	    0.000	    0.000
  206.590	   11.000	    0.000	    0.000	    1.101	    0.200	    0.000	    0.000
  206.600	   11.000	    0.000	    0.000	    1.100	    0.200	    0.000	    0.000
  206.610	   11.000	    0.000	    0.000	    1.099	    0.200	    0.000	    0.000
  206.620	   11.000	    0.000	    0.000	    1.098	    0.200	    0.000	    0.000
  206.630	   11.000	    0.000	    0.000	    1.097	    0.200	    0.000	    0.000
  206.640	   11.000	    0.000	    0.000	    1.096	    0.200	    0.000	    0.000
  206.650	   11.000	    0.000	    0.000	    1.095	    0.200	    0.000	    0.000
  206.660	   11.000	    0.000	    0.000	    1.094	    0.200	    0.000	    0.000
  206.670	   11.000	    0.000	    0.000	    1.093	    0.200	    0.000	    0.000
  206.680	   11.000	    0.000	    0.000	    1.092	    0.200	    0.000	    0.000
  206.690	   11.000	    0.000	    0.000	    1.091	    0.200	    0.000	    0.000
  206.700	   11.000	    0.000	    0.000	    1.090	    0.200	    0.000	    0.000
  206.710	   11.000	    0.000	    0.000	    1.089	    0.200	    0.000	    0.000
  206.720	   11.000	    0.000	    0.000	    1.088	    0.200	    0.000	    0.000
  206.730	   11.000	    0.000	    0.000	    1.087	    0.200	    0.000	    0.000
  206.740	   11.000	    0.000	    0.000	    1.086	    0.200	    0.000	    0.000
  206.750	   11.000	    0.000	    0.000	    1.085	    0.200	    0.000	    0.000
  206.760	   11.000	    0.000	    0.000	    1.083	    0.200	    0.000	    0.000
  206.770	   11.000	    0.000	    0.000	    1.082	    0.200	    0.000	    0.000
  206.780	   11.000	    0.000	    0.000	    1.081	    0.200	    0.000	    0.000
  206.790	   11.000	    0.000	    0.000	    1.080	    0.200	    0.000	    0.000
  206.800	   11.000	    0.000	    0.000	    1.079	    0.200	    0.000	    0.000
  206.810	   11.000	    0.000	    0.000	    1.078	    0.200	    0.000	    0.000
  206.820	   11.000	    0.000	    0.000	    1.076	    0.200	    0.000	    0.000
  206.830	   11.000	    0.000	    0.000	    1.075	    0.200	    0.000	    0.000
  206.840	   11.000	    0.000	    0.000	    1.074	    0.200	    0.000	    0.000
  206.850	   11.000	    0.000	    0.000	    1.073	    0.200	    0.000	    0.000
  206.860	   11.000	    0.000	    0.000	    1.071	    0.200	    0.000	    0.000
  206.870	   11.000	    0.000	    0.000	    1.070	    0.200	    0.000	    0.000
  206.880	   11.000	    0.000	    0.000	    1.069	    0.200	    0.000	    0.000
  206.890	   11.000	    0.000	    0.000	    1.067	    0.200	    0.000	    0.000
  206.900	   11.000	    0.000	    0.000	    1.066	    0.200	    0.000	    0.000
  206.910	   11.000	    0.000	    0.000	    1.065	    0.200	    0.000	    0.000
  206.920	   11.000	    0.000	    0.000	    1.063	    0.200	    0.000	    0.000
  206.930	   11.000	    0.000	    0.000	    1.062	    0.200	    0.000	    0.000
  206.940	   11.000	    0.000	    0.000	    1.061	    0.200	    0.000	    0.000
  206.950	   11.000	    0.000	    0.000	    1.059	    0.200	    0.000	    0.000
  206.960	   11.000	    0.000	    0.000	    1.058	    0.200	    0.000	    0.000
  206.970	   11.000	    0.000	    0.000	    1.056	    0.200	    0.000	    0.000
  206.980	   11.000	    0.000	    0.000	    1.055	    0.200	    0.000	    0.000
  206.990	   11.000	    0.000	    0.000	    1.053	    0.200	    0.000	    0.000
  207.000	   11.000	    0.000	    0.000	    1.052	    0.200	    0.000	    0.000
  207.010	   11.000	    0.000	    0.000	    1.050	    0.200	    0.000	    0.000
  207.020	   11.000	    0.000	    0.000	    1.049	    0.200	    0.000	    0.000
  207.030	   11.000	    0.000	    0.000	    1.047	    0.200	    0.000	    0.000
  207.040	   11.000	    0.000	    0.000	    1.046	    0.200	    0.000	    0.000
  207.050	   11.000	    0.000	    0.000	    1.044	    0.200	    0.000	    0.000
  207.060	   11.000	    0.000	    0.000	    1.043	    0.200	    0.000	    0.000
  207.070	   11.000	    0.000	    0.000	    1.041	    0.200	    0.000	    0.000
  207.080	   11.000	    0.000	    0.000	    1.040	    0.200	    0.000	    0.000
  207.090	   11.000	    0.000	    0.000	    1.038	    0.200	    0.000	    0.000
  207.100	   11.000	    0.000	    0.000	    1.036	    0.200	    0.000	    0.000
  207.110	   11.000	    0.000	    0.000	    1.035	    0.200	    0.000	    0.000
  207.120	   11.000	    0.000	    0.000	    1.033	    0.200	    0.000	    0.000
  207.130	   11.000	    0.000	    0.000	    1.032	    0.200	    0.000	    0.000
  207.140	   11.000	    0.000	    0.000	    1.030	    0.200	    0.000	    0.000
  207.150	   11.000	    0.000	    0.000	    1.028	    0.200	    0.000	    0.000
  207.160	   11.000	    0.000	    0.000	    1.027	    0.200	    0.000	    0.000
  207.170	   11.000	    0.000	    0.000	    1.025	    0.200	    0.000	    0.000
  207.180	   11.000	    0.000	    0.000	    1.023	    0.200	    0.000	    0.000
  207.190	   11.000	    0.000	    0.000	    1.022	    0.200	    0.000	    0.000
  207.200	   11.000	    0.000	    0.000	    1.020	    0.200	    0.000	    0.000
  207.210	   11.000	    0.000	    0.000	    1.018	    0.200	    0.000	    0.000
  207.220	   11.000	    0.000	    0.000	    1.016	    0.200	    0.000	    0.000
  207.230	   11.000	    0.000	    0.000	    1.015	    0.200	    0.000	    0.000
  207.240	   11.000	    0.000	    0.000	    1.013	    0.200	    0.000	    0.000
  207.250	   11.000	    0.000	    0.000	    1.011	    0.200	    0.000	    0.000
  207.260	   11.000	    0.000	    0.000	    1.009	    0.200	    0.000	    0.000
  207.270	   11.000	    0.000	    0.000	    1.007	    0.200	    0.000	    0.000
  207.280	   11.000	    0.000	    0.000	    1.006	    0.200	    0.000	    0.000
  207.290	   11.000	    0.000	    0.000	    1.004	    0.200	    0.000	    0.000
  207.300	   11.000	    0.000	    0.000	    1.002	    0.200	    0.000	    0.000
  207.310	   11.000	    0.000	    0.000	    1.000	    0.200	    0.000	    0.000
  207.320	   11.000	    0.000	    0.000	    0.998	    0.200	    0.000	    0.000
  207.330	   11.000	    0.000	    0.000	    0.996	    0.200	    0.000	    0.000
  207.340	   11.000	    0.000	    0.000	    0.994	    0.200	    0.000	    0.000
  207.350	   11.000	    0.000	    0.000	    0.992	    0.200	    0.000	    0.000
  207.360	   11.000	    0.000	    0.000	    0.990	    0.200	    0.000	    0.000
  207.370	   11.000	    0.000	    0.000	    0.989	    0.200	    0.000	    0.000
  207.380	   11.000	    0.000	    0.000	    0.987	    0.200	    0.000	    0.000
  207.390	   11.000	    0.000	    0.000	    0.985	    0.200	    0.000	    0.000
  207.400	   11.000	    0.000	    0.000	    0.983	    0.200	    0.000	    0.000
  207.410	   11.000	    0.000	    0.000	    0.981	    0.200	    0.000	    0.000
  207.420	   11.000	    0.000	    0.000	    0.979	    0.200	    0.000	    0.000
  207.430	   11.000	    0.000	    0.000	    0.977	    0.200	    0.000	    0.000
  207.440	   11.000	    0.000	    0.000	    0.975	    0.200	    0.000	    0.000
  207.450	   11.000	    0.000	    0.000	    0.973	    0.200	    0.000	    0.000
  207.460	   11.000	    0.000	    0.000	    0.971	    0.200	    0.000	    0.000
  207.470	   11.000	    0.000	    0.000	    0.969	    0.200	    0.000	    0.000
  207.480	   11.000	    0.000	    0.000	    0.966	    0.200	    0.000	    0.000
  207.490	   11.000	    0.000	    0.000	    0.964	    0.200	    0.000	    0.000
  207.500	   11.000	    0.000	    0.000	    0.962	    0.200	    0.000	    0.000
  207.510	   11.000	    0.000	    0.000	    0.960	    0.200	    0.000	    0.000
  207.520	   11.000	    0.000	    0.000	    0.958	    0.200	    0.000	    0.000
  207.530	   11.000	    0.000	    0.000	    0.956	    0.200	    0.000	    0.000
  207.540	   11.000	    0.000	    0.000	    0.954	    0.200	    0.000	    0.000
  207.550	   11.000	    0.000	    0.000	    0.952	    0.200	    0.000	    0.000
  207.560	   11.000	    0.000	    0.000	    0.950	    0.200	    0.000	    0.000
  207.570	   11.000	    0.000	    0.000	    0.947	    0.200	    0.000	    0.000
  207.580	   11.000	    0.000	    0.000	    0.945	    0.200	    0.000	    0.000
  207.590	   11.000	    0.000	    0.000	    0.943	    0.200	    0.000	    0.000
  207.600	   11.000	    0.000	    0.000	    0.941	    0.200	    0.000	    0.000
  207.610	   11.000	    0.000	    0.000	    0.939	    0.200	    0.000	    0.000
  207.620	   11.000	    0.000	    0.000	    0.937	    0.200	    0.000	    0.000
  207.630	   11.000	    0.000	    0.000	    0.934	    0.200	    0.000	    0.000
  207.640	   11.000	    0.000	    0.000	    0.932	    0.200	    0.000	    0.000
  207.650	   11.000	    0.000	    0.000	    0.930	    0.200	    0.000	    0.000
  207.660	   11.000	    0.000	    0.000	    0.928	    0.200	    0.000	    0.000
  207.670	   11.000	    0.000	    0.000	    0.925	    0.200	    0.000	    0.000
  207.680	   11.000	    0.000	    0.000	    0.923	    0.200	    0.000	    0.000
  207.690	   11.000	    0.000	    0.000	    0.921	    0.200	    0.000	    0.000
  207.700	   11.000	    0.000	    0.000	    0.918	    0.200	    0.000	    0.000
  207.710	   11.000	    0.000	    0.000	    0.916	    0.200	    0.000	    0.000
  207.720	   11.000	    0.000	    0.000	    0.914	    0.200	    0.000	    0.000
  207.730	   11.000	    0.000	    0.000	    0.912	    0.200	    0.000	    0.000
  207.740	   11.000	    0.000	    0.000	    0.909	    0.200	    0.000	    0.000
  207.750	   11.000	    0.000	    0.000	    0.907	    0.200	    0.000	    0.000
  207.760	   11.000	    0.000	    0.000	    0.905	    0.200	    0.000	    0.000
  207.770	   11.000	    0.000	    0.000	    0.902	    0.200	    0.000	    0.000
  207.780	   11.000	    0.000	    0.000	    0.900	    0.200	    0.000	    0.000
  207.790	   11.000	    0.000	    0.000	    0.897	    0.200	    0.000	    0.000
  207.800	   11.000	    0.000	    0.000	    0.895	    0.200	    0.000	    0.000
  207.810	   11.000	    0.000	    0.000	    0.893	    0.200	    0.000	    0.000
  207.820	   11.000	    0.000	    0.000	    0.890	    0.200	    0.000	    0.000
  207.830	   11.000	    0.000	    0.000	    0.888	    0.200	    0.000	    0.000
  207.840	   11.000	    0.000	    0.000	    0.885	    0.200	    0.000	    0.000
  207.850	   11.000	    0.000	    0.000	    0.883	    0.200	    0.000	    0.000
  207.860	   11.000	    0.000	    0.000	    0.881	    0.200	    0.000	    0.000
  207.870	   11.000	    0.000	    0.000	    0.878	    0.200	    0.000	    0.000
  207.880	   11.000	    0.000	    0.000	    0.876	    0.200	    0.000	    0.000
  207.890	   11.000	    0.000	    0.000	    0.873	    0.200	    0.000	    0.000
  207.900	   11.000	    0.000	    0.000	    0.871	    0.200	    0.000	    0.000
  207.910	   11.000	    0.000	    0.000	    0.868	    0.200	    0.000	    0.000
  207.920	   11.000	    0.000	    0.000	    0.866	    0.200	    0.000	    0.000
  207.930	   11.000	    0.000	    0.000	    0.863	    0.200	    0.000	    0.000
  207.940	   11.000	    0.000	    0.000	    0.861	    0.200	    0.000	    0.000
  207.950	   11.000	    0.000	    0.000	    0.858	    0.200	    0.000	    0.000
  207.960	   11.000	    0.000	    0.000	    0.856	    0.200	    0.000	    0.000
  207.970	   11.000	    0.000	    0.000	    0.853	    0.200	    0.000	    0.000
  207.980	   11.000	    0.000	    0.000	    0.851	    0.200	    0.000	    0.000
  207.990	   11.000	    0.000	    0.000	    0.848	    0.200	    0.000	    0.000
  208.000	   11.000	    0.000	    0.000	    0.846	    0.200	    0.000	    0.000
  208.010	   11.000	    0.000	    0.000	    0.843	    0.200	    0.000	    0.000
  208.020	   11.000	    0.000	    0.000	    0.840	    0.200	    0.000	    0.000
  208.030	   11.000	    0.000	    0.000	    0.838	    0.200	    0.000	    0.000
  208.040	   11.000	    0.000	    0.000	    0.835	    0.200	    0.000	    0.000
  208.050	   11.000	    0.000	    0.000	    0.833	    0.200	    0.000	    0.000
  208.060	   11.000	    0.000	    0.000	    0.830	    0.200	    0.000	    0.000
  208.070	   11.000	    0.000	    0.000	    0.828	    0.200	    0.000	    0.000
  208.080	   11.000	    0.000	    0.000	    0.825	    0.200	    0.000	    0.000
  208.090	   11.000	    0.000	    0.000	    0.822	    0.200	    0.000	    0.000
  208.100	   11.000	    0.000	    0.000	    0.820	    0.200	    0.000	    0.000
  208.110	   11.000	    0.000	    0.000	    0.817	    0.200	    0.000	    0.000
  208.120	   11.000	    0.000	    0.000	    0.814	    0.200	    0.000	    0.000
  208.130	   11.000	    0.000	    0.000	    0.812	    0.200	    0.000	    0.000
  208.140	   11.000	    0.000	    0.000	    0.809	    0.200	    0.000	    0.000
  208.150	   11.000	    0.000	    0.000	    0.806	    0.200	    0.000	    0.000
  208.160	   11.000	    0.000	    0.000	    0.804	    0.200	    0.000	    0.000
  208.170	   11.000	    0.000	    0.000	    0.801	    0.200	    0.000	    0.000
  208.180	   11.000	    0.000	    0.000	    0.798	    0.200	    0.000	    0.000
  208.190	   11.000	    0.000	    0.000	    0.796	    0.200	    0.000	    0.000
  208.200	   11.000	    0.000	    0.000	    0.793	    0.200	    0.000	    0.000
  208.210	   11.000	    0.000	    0.000	    0.790	    0.200	    0.000	    0.000
  208.220	   11.000	    0.000	    0.000	    0.788	    0.200	    0.000	    0.000
  208.230	   11.000	    0.000	    0.000	    0.785	    0.200	    0.000	    0.000
  208.240	   11.000	    0.000	    0.000	    0.782	    0.200	    0.000	    0.000
  208.250	   11.000	    0.000	    0.000	    0.779	    0.200	    0.000	    0.000
  208.260	   11.000	    0.000	    0.000	    0.777	    0.200	    0.000	    0.000
  208.270	   11.000	    0.000	    0.000	    0.774	    0.200	    0.000	    0.000
  208.280	   11.000	    0.000	    0.000	    0.771	    0.200	    0.000	    0.000
  208.290	   11.000	    0.000	    0.000	    0.768	    0.200	    0.000	    0.000
  208.300	   11.000	    0.000	    0.000	    0.766	    0.200	    0.000	    0.000
  208.310	   11.000	    0.000	    0.000	    0.763	    0.200	    0.000	    0.000
  208.320	   11.000	    0.000	    0.000	    0.760	    0.200	    0.000	    0.000
  208.330	   11.000	    0.000	    0.000	    0.757	    0.200	    0.000	    0.000
  208.340	   11.000	    0.000	    0.000	    0.755	    0.200	    0.000	    0.000
  208.350	   11.000	    0.000	    0.000	    0.752	    0.200	    0.000	    0.000
  208.360	   11.000	    0.000	    0.000	    0.749	    0.200	    0.000	    0.000
  208.370	   11.000	    0.000	    0.000	    0.746	    0.200	    0.000	    0.000
  208.380	   11.000	    0.000	    0.000	    0.744	    0.200	    0.000	    0.000
  208.390	   11.000	    0.000	    0.000	    0.741	    0.200	    0.000	    0.000
  208.400	   11.000	    0.000	    0.000	    0.738	    0.200	    0.000	    0.000
  208.410	   11.000	    0.000	    0.000	    0.735	    0.200	    0.000	    0.000
  208.420	   11.000	    0.000	    0.000	    0.732	    0.200	    0.000	    0.000
  208.430	   11.000	    0.000	    0.000	    0.729	    0.200	    0.000	    0.000
  208.440	   11.000	    0.000	    0.000	    0.727	    0.200	    0.000	    0.000
  208.450	   11.000	    0.000	    0.000	    0.724	    0.200	    0.000	    0.000
  208.460	   11.000	    0.000	    0.000	    0.721	    0.200	    0.000	    0.000
  208.470	   11.000	    0.000	    0.000	    0.718	    0.200	    0.000	    0.000
  208.480	   11.000	    0.000	    0.000	    0.715	    0.200	    0.000	    0.000
  208.490	   11.000	    0.000	    0.000	    0.712	    0.200	    0.000	    0.000
  208.500	   11.000	    0.000	    0.000	    0.710	    0.200	    0.000	    0.000
  208.510	   11.000	    0.000	    0.000	    0.707	    0.200	    0.000	    0.000
  208.520	   11.000	    0.000	    0.000	    0.704	    0.200	    0.000	    0.000
  208.530	   11.000	    0.000	    0.000	    0.701	    0.200	    0.000	    0.000
  208.540	   11.000	    0.000	    0.000	    0.698	    0.200	    0.000	    0.000
  208.550	   11.000	    0.000	    0.000	    0.695	    0.200	    0.000	    0.000
  208.560	   11.000	    0.000	    0.000	    0.692	    0.200	    0.000	    0.000
  208.570	   11.000	    0.000	    0.000	    0.690	    0.200	    0.000	    0.000
  208.580	   11.000	    0.000	    0.000	    0.687	    0.200	    0.000	    0.000
  208.590	   11.000	    0.000	    0.000	    0.684	    0.200	    0.000	    0.000
  208.600	   11.000	    0.000	    0.000	    0.681	    0.200	    0.000	    0.000
  208.610	   11.000	    0.000	    0.000	    0.678	    0.200	    0.000	    0.000
  208.620	   11.000	    0.000	    0.000	    0.675	    0.200	    0.000	    0.000
  208.630	   11.000	    0.000	    0.000	    0.672	    0.200	    0.000	    0.000
  208.640	   11.000	    0.000	    0.000	    0.669	    0.200	    0.000	    0.000
  208.650	   11.000	    0.000	    0.000	    0.666	    0.200	    0.000	    0.000
  208.660	   11.000	    0.000	    0.000	    0.664	    0.200	    0.000	    0.000
  208.670	   11.000	    0.000	    0.000	    0.661	    0.200	    0.000	    0.000
  208.680	   11.000	    0.000	    0.000	    0.658	    0.200	    0.000	    0.000
  208.690	   11.000	    0.000	    0.000	    0.655	    0.200	    0.000	    0.000
  208.700	   11.000	    0.000	    0.000	    0.652	    0.200	    0.000	    0.000
  208.710	   11.000	    0.000	    0.000	    0.649	    0.200	    0.000	    0.000
  208.720	   11.000	    0.000	    0.000	    0.646	    0.200	    0.000	    0.000
  208.730	   11.000	    0.000	    0.000	    0.643	    0.200	    0.000	    0.000
  208.740	   11.000	    0.000	    0.000	    0.640	    0.200	    0.000	    0.000
  208.750	   11.000	    0.000	    0.000	    0.637	    0.200	    0.000	    0.000
  208.760	   11.000	    0.000	    0.000	    0.634	    0.200	    0.000	    0.000
  208.770	   11.000	    0.000	    0.000	    0.631	    0.200	    0.000	    0.000
  208.780	   11.000	    0.000	    0.000	    0.629	    0.200	    0.000	    0.000
  208.790	   11.000	    0.000	    0.000	    0.626	    0.200	    0.000	    0.000
  208.800	   11.000	    0.000	    0.000	    0.623	    0.200	    0.000	    0.000
  208.810	   11.000	    0.000	    0.000	    0.620	    0.200	    0.000	    0.000
  208.820	   11.000	    0.000	    0.000	    0.617	    0.200	    0.000	    0.000
  208.830	   11.000	    0.000	    0.000	    0.614	    0.200	    0.000	    0.000
  208.840	   11.000	    0.000	    0.000	    0.611	    0.200	    0.000	    0.000
  208.850	   11.000	    0.000	    0.000	    0.608	    0.200	    0.000	    0.000
  208.860	   11.000	    0.000	    0.000	    0.605	    0.200	    0.000	    0.000
  208.870	   11.000	    0.000	    0.000	    0.602	    0.200	    0.000	    0.000
  208.880	   11.000	    0.000	    0.000	    0.599	    0.200	    0.000	    0.000
  208.890	   11.000	    0.000	    0.000	    0.596	    0.200	    0.000	    0.000
  208.900	   11.000	    0.000	    0.000	    0.593	    0.200	    0.000	    0.000
  208.910	   11.000	    0.000	    0.000	    0.590	    0.200	    0.000	    0.000
  208.920	   11.000	    0.000	    0.000	    0.587	    0.200	    0.000	    0.000
  208.930	   11.000	    0.000	    0.000	    0.584	    0.200	    0.000	    0.000
  208.940	   11.000	    0.000	    0.000	    0.581	    0.200	    0.000	    0.000
  208.950	   11.000	    0.000	    0.000	    0.578	    0.200	    0.000	    0.000
  208.960	   11.000	    0.000	    0.000	    0.576	    0.200	    0.000	    0.000
  208.970	   11.000	    0.000	    0.000	    0.573	    0.200	    0.000	    0.000
  208.980	   11.000	    0.000	    0.000	    0.570	    0.200	    0.000	    0.000
  208.990	   11.000	    0.000	    0.000	    0.567	    0.200	    0.000	    0.000
  209.000	   11.000	    0.000	    0.000	    0.564	    0.200	    0.000	    0.000
  209.010	   11.000	    0.000	    0.000	    0.561	    0.200	    0.000	    0.000
  209.020	   11.000	    0.000	    0.000	    0.558	    0.200	    0.000	    0.000
  209.030	   11.000	    0.000	    0.000	    0.555	    0.200	    0.000	    0.000
  209.040	   11.000	    0.000	    0.000	    0.552	    0.200	    0.000	    0.000
  209.050	   11.000	    0.000	    0.000	    0.549	    0.200	    0.000	    0.000
  209.060	   11.000	    0.000	    0.000	    0.546	    0.200	    0.000	    0.000
  209.070	   11.000	    0.000	    0.000	    0.543	    0.200	    0.000	    0.000
  209.080	   11.000	    0.000	    0.000	    0.540	    0.200	    0.000	    0.000
  209.090	   11.000	    0.000	    0.000	    0.537	    0.200	    0.000	    0.000
  209.100	   11.000	    0.000	    0.000	    0.534	    0.200	    0.000	    0.000
  209.110	   11.000	    0.000	    0.000	    0.531	    0.200	    0.000	    0.000
  209.120	   11.000	    0.000	    0.000	    0.528	    0.200	    0.000	    0.000
  209.130	   11.000	    0.000	    0.000	    0.525	    0.200	    0.000	    0.000
  209.140	   11.000	    0.000	    0.000	    0.522	    0.200	    0.000	    0.000
  209.150	   11.000	    0.000	    0.000	    0.519	    0.200	    0.000	    0.000
  209.160	   11.000	    0.000	    0.000	    0.517	    0.200	    0.000	    0.000
  209.170	   11.000	    0.000	    0.000	    0.514	    0.200	    0.000	    0.000
  209.180	   11.000	    0.000	    0.000	    0.511	    0.200	    0.000	    0.000
  209.190	   11.000	    0.000	    0.000	    0.508	    0.200	    0.000	    0.000
  209.200	   11.000	    0.000	    0.000	    0.505	    0.200	    0.000	    0.000
  209.210	   11.000	    0.000	    0.000	    0.502	    0.200	    0.000	    0.000
  209.220	   11.000	    0.000	    0.000	    0.499	    0.200	    0.000	    0.000
  209.230	   11.000	    0.000	    0.000	    0.496	    0.200	    0.000	    0.000
  209.240	   11.000	    0.000	    0.000	    0.493	    0.200	    0.000	    0.000
  209.250	   11.000	    0.000	    0.000	    0.490	    0.200	    0.000	    0.000
  209.260	   11.000	    0.000	    0.000	    0.487	    0.200	    0.000	    0.000
  209.270	   11.000	    0.000	    0.000	    0.484	    0.200	    0.000	    0.000
  209.280	   11.000	    0.000	    0.000	    0.481	    0.200	    0.000	    0.000
  209.290	   11.000	    0.000	    0.000	    0.478	    0.200	    0.000	    0.000
  209.300	   11.000	    0.000	    0.000	    0.476	    0.200	    0.000	    0.000
  209.310	   11.000	    0.000	    0.000	    0.473	    0.200	    0.000	    0.000
  209.320	   11.000	    0.000	    0.000	    0.470	    0.200	    0.000	    0.000
  209.330	   11.000	    0.000	    0.000	    0.467	    0.200	    0.000	    0.000
  209.340	   11.000	    0.000	    0.000	    0.464	    0.200	    0.000	    0.000
  209.350	   11.000	    0.000	    0.000	    0.461	    0.200	    0.000	    0.000
  209.360	   11.000	    0.000	    0.000	    0.458	    0.200	    0.000	    0.000
  209.370	   11.000	    0.000	    0.000	    0.455	    0.200	    0.000	    0.000
  209.380	   11.000	    0.000	    0.000	    0.452	    0.200	    0.000	    0.000
  209.390	   11.000	    0.000	    0.000	    0.449	    0.200	    0.000	    0.000
  209.400	   11.000	    0.000	    0.000	    0.447	    0.200	    0.000	    0.000
  209.410	   11.000	    0.000	    0.000	    0.444	    0.200	    0.000	    0.000
  209.420	   11.000	    0.000	    0.000	    0.441	    0.200	    0.000	    0.000
  209.430	   11.000	    0.000	    0.000	    0.438	    0.200	    0.000	    0.000
  209.440	   11.000	    0.000	    0.000	    0.435	    0.200	    0.000	    0.000
  209.450	   11.000	    0.000	    0.000	    0.432	    0.200	    0.000	    0.000
  209.460	   11.000	    0.000	    0.000	    0.429	    0.200	    0.000	    0.000
  209.470	   11.000	    0.000	    0.000	    0.426	    0.200	    0.000	    0.000
  209.480	   11.000	    0.000	    0.000	    0.424	    0.200	    0.000	    0.000
  209.490	   11.000	    0.000	    0.000	    0.421	    0.200	    0.000	    0.000
  209.500	   11.000	    0.000	    0.000	    0.418	    0.200	    0.000	    0.000
  209.510	   11.000	    0.000	    0.000	    0.415	    0.200	    0.000	    0.000
  209.520	   11.000	    0.000	    0.000	    0.412	    0.200	    0.000	    0.000
  209.530	   11.000	    0.000	    0.000	    0.409	    0.200	    0.000	    0.000
  209.540	   11.000	    0.000	    0.000	    0.406	    0.200	    0.000	    0.000
  209.550	   11.000	    0.000	    0.000	    0.404	    0.200	    0.000	    0.000
  209.560	   11.000	    0.000	    0.000	    0.401	    0.200	    0.000	    0.000
  209.570	   11.000	    0.000	    0.000	    0.398	    0.200	    0.000	    0.000
  209.580	   11.000	    0.000	    0.000	    0.395	    0.200	    0.000	    0.000
  209.590	   11.000	    0.000	    0.000	    0.392	    0.200	    0.000	    0.000
  209.600	   11.000	    0.000	    0.000	    0.390	    0.200	    0.000	    0.000
  209.610	   11.000	    0.000	    0.000	    0.387	    0.200	    0.000	    0.000
  209.620	   11.000	    0.000	    0.000	    0.384	    0.200	    0.000	    0.000
  209.630	   11.000	    0.000	    0.000	    0.381	    0.200	    0.000	    0.000
  209.640	   11.000	    0.000	    0.000	    0.378	    0.200	    0.000	    0.000
  209.650	   11.000	    0.000	    0.000	    0.376	    0.200	    0.000	    0.000
  209.660	   11.000	    0.000	    0.000	    0.373	    0.200	    0.000	    0.000
  209.670	   11.000	    0.000	    0.000	    0.370	    0.200	    0.000	    0.000
  209.680	   11.000	    0.000	    0.000	    0.367	    0.200	    0.000	    0.000
  209.690	   11.000	    0.000	    0.000	    0.364	    0.200	    0.000	    0.000
  209.700	   11.000	    0.000	    0.000	    0.362	    0.200	    0.000	    0.000
  209.710	   11.000	    0.000	    0.000	    0.359	    0.200	    0.000	    0.000
  209.720	   11.000	    0.000	    0.000	    0.356	    0.200	    0.000	    0.000
  209.730	   11.000	    0.000	    0.000	    0.353	    0.200	    0.000	    0.000
  209.740	   11.000	    0.000	    0.000	    0.351	    0.200	    0.000	    0.000
  209.750	   11.000	    0.000	    0.000	    0.348	    0.200	    0.000	    0.000
  209.760	   11.000	    0.000	    0.000	    0.345	    0.200	    0.000	    0.000
  209.770	   11.000	    0.000	    0.000	    0.343	    0.200	    0.000	    0.000
  209.780	   11.000	    0.000	    0.000	    0.340	    0.200	    0.000	    0.000
  209.790	   11.000	    0.000	    0.000	    0.337	    0.200	    0.000	    0.000
  209.800	   11.000	    0.000	    0.000	    0.334	    0.200	    0.000	    0.000
  209.810	   11.000	    0.000	    0.000	    0.332	    0.200	    0.000	    0.000
  209.820	   11.000	    0.000	    0.000	    0.329	    0.200	    0.000	    0.000
  209.830	   11.000	    0.000	    0.000	    0.326	    0.200	    0.000	    0.000
  209.840	   11.000	    0.000	    0.000	    0.324	    0.200	    0.000	    0.000
  209.850	   11.000	    0.000	    0.000	    0.321	    0.200	    0.000	    0.000
  209.860	   11.000	    0.000	    0.000	    0.318	    0.200	    0.000	    0.000
  209.870	   11.000	    0.000	    0.000	    0.316	    0.200	    0.000	    0.000
  209.880	   11.000	    0.000	    0.000	    0.313	    0.200	    0.000	    0.000
  209.890	   11.000	    0.000	    0.000	    0.310	    0.200	    0.000	    0.000
  209.900	   11.000	    0.000	    0.000	    0.308	    0.200	    0.000	    0.000
  209.910	   11.000	    0.000	    0.000	    0.305	    0.200	    0.000	    0.000
  209.920	   11.000	    0.000	    0.000	    0.303	    0.200	    0.000	    0.000
  209.930	   11.000	    0.000	    0.000	    0.300	    0.200	    0.000	    0.000
  209.940	   11.000	    0.000	    0.000	    0.297	    0.200	    0.000	    0.000
  209.950	   11.000	    0.000	    0.000	    0.295	    0.200	    0.000	    0.000
  209.960	   11.000	    0.000	    0.000	    0.292	    0.200	    0.000	    0.000
  209.970	   11.000	    0.000	    0.000	    0.290	    0.200	    0.000	    0.000
  209.980	   11.000	    0.000	    0.000	    0.287	    0.200	    0.000	    0.000
  209.990	   11.000	    0.000	    0.000	    0.284	    0.200	    0.000	    0.000
  210.000	   11.000	    0.000	    0.000	    0.282	    0.200	    0.000	    0.000
  210.010	   11.000	    0.000	    0.000	    0.279	    0.200	    0.000	    0.000
  210.020	   11.000	    0.000	    0.000	    0.277	    0.200	    0.000	    0.000
  210.030	   11.000	    0.000	    0.000	    0.274	    0.200	    0.000	    0.000
  210.040	   11.000	    0.000	    0.000	    0.272	    0.200	    0.000	    0.000
  210.050	   11.000	    0.000	    0.000	    0.269	    0.200	    0.000	    0.000
  210.060	   11.000	    0.000	    0.000	    0.267	    0.200	    0.000	    0.000
  210.070	   11.000	    0.000	    0.000	    0.264	    0.200	    0.000	    0.000
  210.080	   11.000	    0.000	    0.000	    0.262	    0.200	    0.000	    0.000
  210.090	   11.000	    0.000	    0.000	    0.259	    0.200	    0.000	    0.000
  210.100	   11.000	    0.000	    0.000	    0.257	    0.200	    0.000	    0.000
  210.110	   11.000	    0.000	    0.000	    0.254	    0.200	    0.000	    0.000
  210.120	   11.000	    0.000	    0.000	    0.252	    0.200	    0.000	    0.000
  210.130	   11.000	    0.000	    0.000	    0.249	    0.200	    0.000	    0.000
  210.140	   11.000	    0.000	    0.000	    0.247	    0.200	    0.000	    0.000
  210.150	   11.000	    0.000	    0.000	    0.244	    0.200	    0.000	    0.000
  210.160	   11.000	    0.000	    0.000	    0.242	    0.200	    0.000	    0.000
  210.170	   11.000	    0.000	    0.000	    0.240	    0.200	    0.000	    0.000
  210.180	   11.000	    0.000	    0.000	    0.237	    0.200	    0.000	    0.000
  210.190	   11.000	    0.000	    0.000	    0.235	    0.200	    0.000	    0.000
  210.200	   11.000	    0.000	    0.000	    0.232	    0.200	    0.000	    0.000
  210.210	   11.000	    0.000	    0.000	    0.230	    0.200	    0.000	    0.000
  210.220	   11.000	    0.000	    0.000	    0.228	    0.200	    0.000	    0.000
  210.230	   11.000	    0.000	    0.000	    0.225	    0.200	    0.000	    0.000
  210.240	   11.000	    0.000	    0.000	    0.223	    0.200	    0.000	    0.000
  210.250	   11.000	    0.000	    0.000	    0.221	    0.200	    0.000	    0.000
  210.260	   11.000	    0.000	    0.000	    0.218	    0.200	    0.000	    0.000
  210.270	   11.000	    0.000	    0.000	    0.216	    0.200	    0.000	    0.000
  210.280	   11.000	    0.000	    0.000	    0.214	    0.200	    0.000	    0.000
  210.290	   11.000	    0.000	    0.000	    0.211	    0.200	    0.000	    0.000
  210.300	   11.000	    0.000	    0.000	    0.209	    0.200	    0.000	    0.000
  210.310	   11.000	    0.000	    0.000	    0.207	    0.200	    0.000	    0.000
  210.320	   11.000	    0.000	    0.000	    0.204	    0.200	    0.000	    0.000
  210.330	   11.000	    0.000	    0.000	    0.202	    0.200	    0.000	    0.000
  210.340	   11.000	    0.000	    0.000	    0.200	    0.200	    0.000	    0.000
  210.350	   11.000	    0.000	    0.000	    0.198	    0.200	    0.000	    0.000
  210.360	   11.000	    0.000	    0.000	    0.195	    0.200	    0.000	    0.000
  210.370	   11.000	    0.000	    0.000	    0.193	    0.200	    0.000	    0.000
  210.380	   11.000	    0.000	    0.000	    0.191	    0.200	    0.000	    0.000
  210.390	   11.000	    0.000	    0.000	    0.189	    0.200	    0.000	    0.000
  210.400	   11.000	    0.000	    0.000	    0.187	    0.200	    0.000	    0.000
  210.410	   11.000	    0.000	    0.000	    0.184	    0.200	    0.000	    0.000
  210.420	   11.000	    0.000	    0.000	    0.182	    0.200	    0.000	    0.000
  210.430	   11.000	    0.000	    0.000	    0.180	    0.200	    0.000	    0.000
  210.440	   11.000	    0.000	    0.000	    0.178	    0.200	    0.000	    0.000
  210.450	   11.000	    0.000	    0.000	    0.176	    0.200	    0.000	    0.000
  210.460	   11.000	    0.000	    0.000	    0.174	    0.200	    0.000	    0.000
  210.470	   11.000	    0.000	    0.000	    0.171	    0.200	    0.000	    0.000
  210.480	   11.000	    0.000	    0.000	    0.169	    0.200	    0.000	    0.000
  210.490	   11.000	    0.000	    0.000	    0.167	    0.200	    0.000	    0.000
  210.500	   11.000	    0.000	    0.000	    0.165	    0.200	    0.000	    0.000
  210.510	   11.000	    0.000	    0.000	    0.163	    0.200	    0.000	    0.000
  210.520	   11.000	    0.000	    0.000	    0.161	    0.200	    0.000	    0.000
  210.530	   11.000	    0.000	    0.000	    0.159	    0.200	    0.000	    0.000
  210.540	   11.000	    0.000	    0.000	    0.157	    0.200	    0.000	    0.000
  210.550	   11.000	    0.000	    0.000	    0.155	    0.200	    0.000	    0.000
  210.560	   11.000	    0.000	    0.000	    0.153	    0.200	    0.000	    0.000
  210.570	   11.000	    0.000	    0.000	    0.151	    0.200	    0.000	    0.000
  210.580	   11.000	    0.000	    0.000	    0.149	    0.200	    0.000	    0.000
  210.590	   11.000	    0.000	    0.000	    0.147	    0.200	    0.000	    0.000
  210.600	   11.000	    0.000	    0.000	    0.145	    0.200	    0.000	    0.000
  210.610	   11.000	    0.000	    0.000	    0.143	    0.200	    0.000	    0.000
  210.620	   11.000	    0.000	    0.000	    0.141	    0.200	    0.000	    0.000
  210.630	   11.000	    0.000	    0.000	    0.139	    0.200	    0.000	    0.000
  210.640	   11.000	    0.000	    0.000	    0.137	    0.200	    0.000	    0.000
  210.650	   11.000	    0.000	    0.000	    0.135	    0.200	    0.000	    0.000
  210.660	   11.000	    0.000	    0.000	    0.133	    0.200	    0.000	    0.000
  210.670	   11.000	    0.000	    0.000	    0.131	    0.200	    0.000	    0.000
  210.680	   11.000	    0.000	    0.000	    0.129	    0.200	    0.000	    0.000
  210.690	   11.000	    0.000	    0.000	    0.127	    0.200	    0.000	    0.000
  210.700	   11.000	    0.000	    0.000	    0.126	    0.200	    0.000	    0.000
  210.710	   11.000	    0.000	    0.000	    0.124	    0.200	    0.000	    0.000
  210.720	   11.000	    0.000	    0.000	    0.122	    0.200	    0.000	    0.000
  210.730	   11.000	    0.000	    0.000	    0.120	    0.200	    0.000	    0.000
  210.740	   11.000	    0.000	    0.000	    0.118	    0.200	    0.000	    0.000
  210.750	   11.000	    0.000	    0.000	    0.116	    0.200	    0.000	    0.000
  210.760	   11.000	    0.000	    0.000	    0.115	    0.200	    0.000	    0.000
  210.770	   11.000	    0.000	    0.000	    0.113	    0.200	    0.000	    0.000
  210.780	   11.000	    0.000	    0.000	    0.111	    0.200	    0.000	    0.000
  210.790	   11.000	    0.000	    0.000	    0.109	    0.200	    0.000	    0.000
  210.800	   11.000	    0.000	    0.000	    0.108	    0.200	    0.000	    0.000
  210.810	   11.000	    0.000	    0.000	    0.106	    0.200	    0.000	    0.000
  210.820	   11.000	    0.000	    0.000	    0.104	    0.200	    0.000	    0.000
  210.830	   11.000	    0.000	    0.000	    0.103	    0.200	    0.000	    0.000
  210.840	   11.000	    0.000	    0.000	    0.101	    0.200	    0.000	    0.000
  210.850	   11.000	    0.000	    0.000	    0.099	    0.200	    0.000	    0.000
  210.860	   11.000	    0.000	    0.000	    0.097	    0.200	    0.000	    0.000
  210.870	   11.000	    0.000	    0.000	    0.096	    0.200	    0.000	    0.000
  210.880	   11.000	    0.000	    0.000	    0.094	    0.200	    0.000	    0.000
  210.890	   11.000	    0.000	    0.000	    0.093	    0.200	    0.000	    0.000
  210.900	   11.000	    0.000	    0.000	    0.091	    0.200	    0.000	    0.000
  210.910	   11.000	    0.000	    0.000	    0.089	    0.200	    0.000	    0.000
  210.920	   11.000	    0.000	    0.000	    0.088	    0.200	    0.000	    0.000
  210.930	   11.000	    0.000	    0.000	    0.086	    0.200	    0.000	    0.000
  210.940	   11.000	    0.000	    0.000	    0.085	    0.200	    0.000	    0.000
  210.950	   11.000	    0.000	    0.000	    0.083	    0.200	    0.000	    0.000
  210.960	   11.000	    0.000	    0.000	    0.082	    0.200	    0.000	    0.000
  210.970	   11.000	    0.000	    0.000	    0.080	    0.200	    0.000	    0.000
  210.980	   11.000	    0.000	    0.000	    0.079	    0.200	    0.000	    0.000
  210.990	   11.000	    0.000	    0.000	    0.077	    0.200	    0.000	    0.000
  211.000	   11.000	    0.000	    0.000	    0.076	    0.200	    0.000	    0.000
  211.010	   11.000	    0.000	    0.000	    0.074	    0.200	    0.000	    0.000
  211.020	   11.000	    0.000	    0.000	    0.073	    0.200	    0.000	    0.000
  211.030	   11.000	    0.000	    0.000	    0.071	    0.200	    0.000	    0.000
  211.040	   11.000	    0.000	    0.000	    0.070	    0.200	    0.000	    0.000
  211.050	   11.000	    0.000	    0.000	    0.068	    0.200	    0.000	    0.000
  211.060	   11.000	    0.000	    0.000	    0.067	    0.200	    0.000	    0.000
  211.070	   11.000	    0.000	    0.000	    0.066	    0.200	    0.000	    0.000
  211.080	   11.000	    0.000	    0.000	    0.064	    0.200	    0.000	    0.000
  211.090	   11.000	    0.000	    0.000	    0.063	    0.200	    0.000	    0.000
  211.100	   11.000	    0.000	    0.000	    0.061	    0.200	    0.000	    0.000
  211.110	   11.000	    0.000	    0.000	    0.060	    0.200	    0.000	    0.000
  211.120	   11.000	    0.000	    0.000	    0.059	    0.200	    0.000	    0.000
  211.130	   11.000	    0.000	    0.000	    0.057	    0.200	    0.000	    0.000
  211.140	   11.000	    0.000	    0.000	    0.056	    0.200	    0.000	    0.000
  211.150	   11.000	    0.000	    0.000	    0.055	    0.200	    0.000	    0.000
  211.160	   11.000	    0.000	    0.000	    0.054	    0.200	    0.000	    0.000
  211.170	   11.000	    0.000	    0.000	    0.052	    0.200	    0.000	    0.000
  211.180	   11.000	    0.000	    0.000	    0.051	    0.200	    0.000	    0.000
  211.190	   11.000	    0.000	    0.000	    0.050	    0.200	    0.000	    0.000
  211.200	   11.000	    0.000	    0.000	    0.049	    0.200	    0.000	    0.000
  211.210	   11.000	    0.000	    0.000	    0.048	    0.200	    0.000	    0.000
  211.220	   11.000	    0.000	    0.000	    0.046	    0.200	    0.000	    0.000
  211.230	   11.000	    0.000	    0.000	    0.045	    0.200	    0.000	    0.000
  211.240	   11.000	    0.000	    0.000	    0.044	    0.200	    0.000	    0.000
  211.250	   11.000	    0.000	    0.000	    0.043	    0.200	    0.000	    0.000
  211.260	   11.000	    0.000	    0.000	    0.042	    0.200	    0.000	    0.000
  211.270	   11.000	    0.000	    0.000	    0.041	    0.200	    0.000	    0.000
  211.280	   11.000	    0.000	    0.000	    0.040	    0.200	    0.000	    0.000
  211.290	   11.000	    0.000	    0.000	    0.039	    0.200	    0.000	    0.000
  211.300	   11.000	    0.000	    0.000	    0.037	    0.200	    0.000	    0.000
  211.310	   11.000	    0.000	    0.000	    0.036	    0.200	    0.000	    0.000
  211.320	   11.000	    0.000	    0.000	    0.035	    0.200	    0.000	    0.000
  211.330	   11.000	    0.000	    0.000	    0.034	    0.200	    0.000	    0.000
  211.340	   11.000	    0.000	    0.000	    0.033	    0.200	    0.000	    0.000
  211.350	   11.000	    0.000	    0.000	    0.032	    0.200	    0.000	    0.000
  211.360	   11.000	    0.000	    0.000	    0.031	    0.200	    0.000	    0.000
  211.370	   11.000	    0.000	    0.000	    0.030	    0.200	    0.000	    0.000
  211.380	   11.000	    0.000	    0.000	    0.029	    0.200	    0.000	    0.000
  211.390	   11.000	    0.000	    0.000	    0.029	    0.200	    0.000	    0.000
  211.400	   11.000	    0.000	    0.000	    0.028	    0.200	    0.000	    0.000
  211.410	   11.000	    0.000	    0.000	    0.027	    0.200	    0.000	    0.000
  211.420	   11.000	    0.000	    0.000	    0.026	    0.200	    0.000	    0.000
  211.430	   11.000	    0.000	    0.000	    0.025	    0.200	    0.000	    0.000
  211.440	   11.000	    0.000	    0.000	    0.024	    0.200	    0.000	    0.000
  211.450	   11.000	    0.000	    0.000	    0.023	    0.200	    0.000	    0.000
  211.460	   11.000	    0.000	    0.000	    0.022	    0.200	    0.000	    0.000
  211.470	   11.000	    0.000	    0.000	    0.022	    0.200	    0.000	    0.000
  211.480	   11.000	    0.000	    0.000	    0.021	    0.200	    0.000	    0.000
  211.490	   11.000	    0.000	    0.000	    0.020	    0.200	    0.000	    0.000
  211.500	   11.000	    0.000	    0.000	    0.019	    0.200	    0.000	    0.000
  211.510	   11.000	    0.000	    0.000	    0.018	    0.200	    0.000	    0.000
  211.520	   11.000	    0.000	    0.000	    0.018	    0.200	    0.000	    0.000
  211.530	   11.000	    0.000	    0.000	    0.017	    0.200	    0.000	    0.000
  211.540	   11.000	    0.000	    0.000	    0.016	    0.200	    0.000	    0.000
  211.550	   11.000	    0.000	    0.000	    0.016	    0.200	    0.000	    0.000
  211.560	   11.000	    0.000	    0.000	    0.015	    0.200	    0.000	    0.000
  211.570	   11.000	    0.000	    0.000	    0.014	    0.200	    0.000	    0.000
  211.580	   11.000	    0.000	    0.000	    0.014	    0.200	    0.000	    0.000
  211.590	   11.000	    0.000	    0.000	    0.013	    0.200	    0.000	    0.000
  211.600	   11.000	    0.000	    0.000	    0.012	    0.200	    0.000	    0.000
  211.610	   11.000	    0.000	    0.000	    0.012	    0.200	    0.000	    0.000
  211.620	   11.000	    0.000	    0.000	    0.011	    0.200	    0.000	    0.000
  211.630	   11.000	    0.000	    0.000	    0.011	    0.200	    0.000	    0.000
  211.640	   11.000	    0.000	    0.000	    0.010	    0.200	    0.000	    0.000
  211.650	   11.000	    0.000	    0.000	    0.009	    0.200	    0.000	    0.000
  211.660	   11.000	    0.000	    0.000	    0.009	    0.200	    0.000	    0.000
  211.670	   11.000	    0.000	    0.000	    0.008	    0.200	    0.000	    0.000
  211.680	   11.000	    0.000	    0.000	    0.008	    0.200	    0.000	    0.000
  211.690	   11.000	    0.000	    0.000	    0.007	    0.200	    0.000	    0.000
  211.700	   11.000	    0.000	    0.000	    0.007	    0.200	    0.000	    0.000
  211.710	   11.000	    0.000	    0.000	    0.006	    0.200	    0.000	    0.000
  211.720	   11.000	    0.000	    0.000	    0.006	    0.200	    0.000	    0.000
  211.730	   11.000	    0.000	    0.000	    0.006	    0.200	    0.000	    0.000
  211.740	   11.000	    0.000	    0.000	    0.005	    0.200	    0.000	    0.000
  211.750	   11.000	    0.000	    0.000	    0.005	    0.200	    0.000	    0.000
  211.760	   11.000	    0.000	    0.000	    0.004	    0.200	    0.000	    0.000
  211.770	   11.000	    0.000	    0.000	    0.004	    0.200	    0.000	    0.000
  211.780	   11.000	    0.000	    0.000	    0.004	    0.200	    0.000	    0.000
  211.790	   11.000	    0.000	    0.000	    0.003	    0.200	    0.000	    0.000
  211.800	   11.000	    0.000	    0.000	    0.003	    0.200	    0.000	    0.000
  211.810	   11.000	    0.000	    0.000	    0.003	    0.200	    0.000	    0.000
  211.820	   11.000	    0.000	    0.000	    0.003	    0.200	    0.000	    0.000
  211.830	   11.000	    0.000	    0.000	    0.002	    0.200	    0.000	    0.000
  211.840	   11.000	    0.000	    0.000	    0.002	    0.200	    0.000	    0.000
  211.850	   11.000	    0.000	    0.000	    0.002	    0.200	    0.000	    0.000
  211.860	   11.000	    0.000	    0.000	    0.002	    0.200	    0.000	    0.000
  211.870	   11.000	    0.000	    0.000	    0.001	    0.200	    0.000	    0.000
  211.880	   11.000	    0.000	    0.000	    0.001	    0.200	    0.000	    0.000
  211.890	   11.000	    0.000	    0.000	    0.001	    0.200	    0.000	    0.000
  211.900	   11.000	    0.000	    0.000	    0.001	    0.200	    0.000	    0.000
  211.910	   11.000	    0.000	    0.000	    0.001	    0.200	    0.000	    0.000
  211.920	   11.000	    0.000	    0.000	    0.000	    0.200	    0.000	    0.000
  211.930	   11.000	    0.000	    0.000	    0.000	    0.200	    0.000	    0.000
  211.940	   11.000	    0.000	    0.000	    0.000	    0.200	    0.000	    0.000
  211.950	   11.000	    0.000	    0.000	    0.000	    0.200	    0.000	    0.000
  211.960	   11.000	    0.000	    0.000	    0.000	    0.200	    0.000	    0.000
  211.970	   11.000	    0.000	    0.000	    0.000	    0.200	    0.000	    0.000
  211.980	   11.000	    0.000	    0.000	    0.000	    0.200	    0.000	    0.000
  211.990	   11.000	    0.000	    0.000	    0.000	    0.200	    0.000	    0.000
  212.000	   11.000	    0.000	    0.000	    0.000	    0.200	    0.000	    0.000
  600.000	   11.000	    0.000	    0.000	    0.000	    0.200	    0.000	    0.000
